time[sec] Pin[KPa] Pout[KPa]
06 24 19 16:07:21
0.1336 0.28 0.41
0.2036 0.41 0.41
0.2488 1.19 0.41
0.2851 1.83 0.41
0.3225 2.48 0.54
0.3619 3.12 0.54
0.4001 3.77 0.41
0.4362 4.54 0.41
0.4741 5.06 0.54
0.5112 5.57 0.67
0.5475 6.09 0.67
0.5846 6.73 0.54
0.6236 7.25 0.54
0.6719 8.02 0.41
0.7066 8.41 0.67
0.7430 9.05 0.54
0.7803 9.57 0.54
0.8258 10.21 0.67
0.8637 10.73 0.54
0.9009 11.12 0.41
0.9360 11.63 0.54
0.9766 12.15 0.54
1.0142 12.66 0.54
1.0514 13.05 0.54
1.0874 13.57 0.41
1.1248 13.95 0.41
1.1615 14.34 0.41
1.2001 14.73 0.41
1.2356 15.24 0.41
1.2742 15.63 0.41
1.3135 16.02 0.41
1.3498 16.40 0.41
1.3873 16.92 0.41
1.4270 17.31 0.41
1.4635 17.56 0.41
1.5020 17.82 0.41
1.5383 18.21 0.41
1.5753 18.60 0.54
1.6126 18.98 0.41
1.6495 19.24 0.54
1.6864 19.50 0.54
1.7236 19.89 0.54
1.7603 20.14 0.54
1.8065 20.40 0.41
1.8457 20.79 0.54
1.8828 21.18 0.54
1.9185 21.43 0.41
1.9585 21.56 0.54
1.9976 21.95 0.41
2.0373 22.08 0.54
2.0759 22.46 0.41
2.1172 22.59 0.41
2.1527 22.85 0.54
2.1906 23.11 0.41
2.2316 23.37 0.41
2.2688 23.63 0.54
2.3097 23.88 0.54
2.3457 23.88 0.54
2.3815 24.14 0.54
2.4188 24.40 0.54
2.4559 24.53 0.41
2.4938 24.66 0.41
2.5341 24.79 0.28
2.5712 25.04 0.41
2.6078 25.17 0.41
2.6453 25.30 0.41
2.6804 25.43 0.41
2.7164 25.56 0.41
2.7536 25.69 0.54
2.7941 25.95 0.54
2.8372 26.08 0.41
2.8736 26.20 0.41
2.9124 26.20 0.41
2.9481 26.33 0.41
2.9850 26.46 0.54
3.0175 26.59 0.54
3.0569 26.72 0.54
3.0946 26.85 0.41
3.1326 26.85 0.54
3.1658 26.98 0.41
3.2020 26.98 0.54
3.2379 27.11 0.41
3.2751 27.11 0.41
3.3137 27.24 0.41
3.3533 27.37 0.54
3.3942 27.37 0.54
3.4317 27.49 0.41
3.4669 27.62 0.41
3.5042 27.62 0.41
3.5407 27.62 0.54
3.5774 27.62 0.41
3.6147 27.75 0.41
3.6524 27.75 0.41
3.6893 27.88 0.41
3.7270 27.88 0.41
3.7612 27.88 0.41
3.8025 28.01 0.41
3.8389 28.01 0.41
3.8751 28.01 0.41
3.9148 28.14 0.41
3.9520 28.14 0.54
3.9880 28.14 0.54
4.0257 28.14 0.41
4.0619 28.27 0.54
4.0984 28.27 0.41
4.1341 28.40 0.41
4.1729 28.27 0.54
4.2083 28.40 0.41
4.2458 28.27 0.41
4.2836 28.40 0.54
4.3155 28.40 0.54
4.3573 28.40 0.41
4.3968 28.53 0.54
4.4344 28.27 0.41
4.4724 28.66 0.54
4.5069 28.53 0.41
4.5437 28.53 0.54
4.5778 28.53 0.54
4.6154 28.53 0.41
4.6519 28.66 0.54
4.6884 28.53 0.41
4.7249 28.66 0.54
4.7618 28.66 0.41
4.8063 28.66 0.41
4.8443 28.66 0.54
4.8865 28.66 0.54
4.9467 28.78 0.41
4.9843 28.66 0.41
5.0200 28.66 0.54
5.0564 28.78 0.41
5.0934 28.66 0.41
5.1317 28.66 0.28
5.1644 28.66 0.41
5.1982 28.66 0.41
5.2402 28.78 0.41
5.2791 28.78 0.41
5.3151 28.91 0.54
5.3510 28.78 0.54
5.3877 28.78 0.54
5.4249 28.78 0.41
5.4617 28.78 0.54
5.4977 28.78 0.54
5.5329 28.78 0.41
5.5677 28.78 0.41
5.6040 28.91 0.54
5.6410 28.78 0.41
5.6775 28.91 0.41
5.7151 28.78 0.41
5.7539 28.78 0.54
5.7919 28.91 0.41
5.8345 28.91 0.41
5.8710 28.91 0.41
5.9090 28.91 0.41
5.9455 28.91 0.41
5.9848 28.91 0.41
6.0238 28.91 0.41
6.0587 28.78 0.41
6.0932 28.91 0.41
6.1306 28.91 0.41
6.1635 28.91 0.41
6.1997 28.91 0.41
6.2372 28.91 0.41
6.2775 29.04 0.41
6.3144 28.91 0.41
6.3520 28.91 0.41
6.3868 28.91 0.54
6.4245 28.91 0.41
6.4622 28.91 0.41
6.4996 28.91 0.54
6.5362 28.91 0.41
6.5712 29.04 0.54
6.6073 28.91 0.54
6.6405 28.91 0.54
6.6731 28.91 0.41
6.7084 29.04 0.41
6.7443 29.04 0.54
6.7806 28.91 0.41
6.8222 28.91 0.41
6.8593 28.91 0.41
6.8957 28.91 0.54
6.9330 28.91 0.54
6.9697 29.04 0.54
7.0015 28.91 0.54
7.0382 28.91 0.54
7.0801 28.91 0.41
7.1179 28.91 0.41
7.1541 28.91 0.54
7.1942 28.91 0.54
7.2305 29.04 0.41
7.2713 29.04 0.41
7.3078 28.91 0.41
7.3438 28.91 0.41
7.3788 29.04 0.41
7.4152 28.91 0.41
7.4526 29.04 0.41
7.4909 28.91 0.54
7.5266 29.04 0.54
7.5635 29.04 0.41
7.6012 28.91 0.54
7.6364 29.04 0.54
7.6722 28.91 0.41
7.7061 28.91 0.41
7.7437 28.91 0.54
7.7818 28.91 0.41
7.8251 29.04 0.41
7.8625 29.04 0.41
7.9036 29.04 0.41
7.9424 29.04 0.41
7.9780 28.91 0.41
8.0146 29.04 0.41
8.0523 28.91 0.54
8.0902 29.04 0.54
8.1334 29.04 0.54
8.1703 29.04 0.41
8.2048 29.04 0.41
8.2386 29.04 0.41
8.2762 29.04 0.41
8.3125 28.91 0.54
8.3492 29.04 0.41
8.3880 28.91 0.41
8.4268 29.04 0.41
8.4642 29.04 0.54
8.5017 29.04 0.41
8.5371 28.91 0.41
8.5746 29.04 0.54
8.6119 29.04 0.41
8.6487 29.04 0.54
8.6848 29.04 0.41
8.7223 29.04 0.41
8.7594 28.91 0.41
8.8046 29.04 0.41
8.8456 29.04 0.41
8.8827 29.04 0.41
8.9192 29.04 0.41
8.9566 29.04 0.41
8.9944 29.04 0.41
9.0286 29.04 0.54
9.0637 29.04 0.41
9.0988 29.04 0.41
9.1349 29.04 0.28
9.1722 29.17 0.41
9.2112 29.04 0.41
9.2467 29.04 0.54
9.2842 29.04 0.41
9.3176 29.04 0.41
9.3533 29.04 0.41
9.3897 29.04 0.41
9.4262 29.04 0.41
9.4639 29.04 0.41
9.5002 29.04 0.41
9.5380 29.04 0.41
9.5744 29.04 0.41
9.6111 29.04 0.41
9.6474 29.17 0.41
9.6846 29.04 0.54
9.7227 29.04 0.54
9.7611 29.04 0.41
9.7984 29.04 0.54
9.8424 29.04 0.41
9.8781 29.04 0.41
9.9113 29.04 0.41
9.9478 29.04 0.41
9.9826 29.04 0.54
10.0198 29.04 0.41
10.0596 29.04 0.54
10.0998 29.04 0.54
10.1363 29.17 0.54
10.1717 29.04 0.54
10.2091 29.04 0.54
10.2469 29.04 0.54
10.2840 29.04 0.41
10.3189 29.04 0.41
10.3567 29.04 0.41
10.3934 29.04 0.54
10.4306 29.04 0.41
10.4682 29.17 0.41
10.5040 29.04 0.41
10.5402 29.04 0.41
10.5775 29.04 0.54
10.6149 29.04 0.41
10.6516 29.04 0.54
10.6907 29.17 0.41
10.7251 29.17 0.41
10.7631 29.04 0.41
10.8079 29.04 0.54
10.8441 29.17 0.41
10.8806 29.04 0.41
10.9187 29.04 0.41
10.9556 29.04 0.41
10.9916 29.04 0.54
11.0278 29.04 0.54
11.0623 29.04 0.41
11.0971 29.04 0.41
11.1319 29.17 0.28
11.1683 29.04 0.41
11.2056 29.04 0.41
11.2419 29.04 0.41
11.2793 29.04 0.54
11.3117 29.04 0.54
11.3473 29.04 0.54
11.3815 29.04 0.41
11.4186 29.04 0.54
11.4577 29.04 0.54
11.4940 29.04 0.67
11.5320 29.04 0.54
11.5690 29.04 0.54
11.6052 29.04 0.54
11.6421 29.04 0.41
11.6796 29.04 0.41
11.7169 29.04 0.41
11.7539 29.04 0.41
11.7871 29.04 0.54
11.8315 29.04 0.54
11.8679 29.04 0.41
11.9064 29.04 0.54
11.9424 29.04 0.54
11.9753 29.17 0.41
12.0118 29.04 0.41
12.0494 29.04 0.41
12.0859 29.04 0.41
12.1176 29.04 0.41
12.1568 29.17 0.54
12.1904 29.04 0.54
12.2255 29.17 0.54
12.2627 29.04 0.41
12.2976 29.04 0.54
12.3340 29.04 0.54
12.3742 29.04 0.41
12.4076 29.04 0.28
12.4442 29.04 0.41
12.4787 29.04 0.41
12.5146 29.04 0.41
12.5517 29.04 0.54
12.5888 29.04 0.54
12.6258 29.04 0.41
12.6643 29.04 0.41
12.6980 29.04 0.54
12.7359 29.04 0.54
12.7720 29.17 0.41
12.8221 29.04 0.41
12.8587 29.17 0.54
12.8962 29.17 0.41
12.9329 29.04 0.41
12.9707 29.04 0.41
13.0074 29.17 0.41
13.0430 29.04 0.41
13.0819 29.04 0.41
13.1212 29.17 0.41
13.1574 29.04 0.41
13.1955 29.17 0.54
13.2306 29.04 0.54
13.2686 29.17 0.41
13.3051 29.04 0.54
13.3425 29.04 0.54
13.3796 29.04 0.41
13.4164 29.04 0.41
13.4550 29.17 0.54
13.4899 29.17 0.54
13.5289 29.04 0.41
13.5679 29.04 0.41
13.6077 29.04 0.54
13.6445 29.04 0.54
13.6830 29.04 0.54
13.7206 29.17 0.54
13.7558 29.04 0.41
13.7961 29.04 0.41
13.8350 29.04 0.41
13.8681 29.04 0.41
13.9076 29.17 0.41
13.9453 29.04 0.54
13.9826 29.04 0.41
14.0149 29.04 0.54
14.0521 29.04 0.41
14.0919 29.04 0.41
14.1280 29.04 0.54
14.1652 29.04 0.41
14.2030 29.17 0.41
14.2379 29.04 0.41
14.2721 29.17 0.41
14.3094 29.04 0.41
14.3467 29.17 0.28
14.3813 29.17 0.54
14.4156 29.17 0.41
14.4526 29.17 0.54
14.4903 29.17 0.54
14.5250 29.17 0.54
14.5624 29.04 0.67
14.6000 29.17 0.54
14.6375 29.04 0.54
14.6737 29.04 0.54
14.7105 29.17 0.54
14.7477 29.04 0.54
14.7855 29.04 0.54
14.8249 29.17 0.54
14.8617 29.04 0.54
14.8997 29.04 0.41
14.9351 29.17 0.54
14.9747 29.04 0.41
15.0078 29.04 0.41
15.0430 29.04 0.54
15.0756 29.04 0.54
15.1124 29.04 0.54
15.1454 29.17 0.54
15.1822 29.30 0.41
15.2146 29.04 0.54
15.2501 29.04 0.54
15.2889 29.17 0.54
15.3211 29.17 0.41
15.3564 29.04 0.41
15.3916 29.04 0.41
15.4275 29.17 0.41
15.4645 29.17 0.41
15.4992 29.17 0.54
15.5356 29.04 0.54
15.5688 29.04 0.54
15.6049 29.17 0.54
15.6387 29.04 0.41
15.6728 29.17 0.41
15.7146 29.04 0.54
15.7517 29.04 0.54
15.7903 29.04 0.41
15.8331 29.04 0.41
15.8702 29.04 0.41
15.9061 29.04 0.28
15.9437 29.04 0.54
15.9808 29.04 0.54
16.0177 29.04 0.54
16.0539 29.04 0.41
16.0903 29.17 0.41
16.1281 29.04 0.41
16.1651 29.04 0.54
16.2017 29.04 0.54
16.2385 29.04 0.67
16.2758 29.04 0.54
16.3091 29.04 0.41
16.3450 29.04 0.54
16.3808 29.04 0.67
16.4186 29.04 0.54
16.4566 29.04 0.54
16.4974 29.04 0.41
16.5362 29.04 0.41
16.5728 29.04 0.41
16.6076 28.91 0.54
16.6444 29.04 0.41
16.6793 29.04 0.54
16.7175 29.17 0.54
16.7537 29.04 0.54
16.8048 29.04 0.67
16.8444 28.91 0.41
16.8796 29.04 0.41
16.9141 29.04 0.54
16.9508 29.17 0.41
16.9878 29.17 0.41
17.0265 29.17 0.54
17.0608 29.04 0.54
17.0984 29.04 0.54
17.1366 29.17 0.54
17.1751 29.04 0.54
17.2139 29.17 0.54
17.2508 29.04 0.41
17.2869 29.04 0.41
17.3238 29.04 0.54
17.3601 29.04 0.54
17.3973 29.04 0.54
17.4351 29.04 0.41
17.4715 29.04 0.54
17.5066 29.17 0.54
17.5418 29.04 0.41
17.5786 29.04 0.54
17.6106 29.04 0.41
17.6483 29.04 0.54
17.6829 29.17 0.41
17.7174 29.04 0.41
17.7519 29.17 0.54
17.7874 29.17 0.41
17.8270 29.04 0.54
17.8642 29.04 0.54
17.9011 29.04 0.54
17.9377 29.04 0.67
17.9742 29.04 0.54
18.0122 29.04 0.54
18.0492 28.91 0.54
18.0862 29.04 0.67
18.1178 29.04 0.41
18.1559 29.04 0.41
18.1903 29.04 0.54
18.2255 29.04 0.41
18.2643 29.04 0.41
18.3061 29.04 0.41
18.3413 29.04 0.41
18.3822 29.04 0.54
18.4174 29.04 0.54
18.4547 29.04 0.41
18.4896 29.04 0.54
18.5274 29.04 0.41
18.5637 29.04 0.41
18.6007 29.04 0.54
18.6375 29.04 0.41
18.6746 29.04 0.54
18.7119 29.04 0.54
18.7494 29.17 0.41
18.7887 29.04 0.54
18.8433 29.04 0.54
18.8796 29.04 0.54
18.9175 29.04 0.54
18.9558 29.04 0.54
18.9941 29.04 0.54
19.0316 29.04 0.41
19.0702 29.04 0.41
19.1056 29.04 0.41
19.1406 29.04 0.54
19.1767 29.04 0.54
19.2160 29.30 0.54
19.2537 29.04 0.54
19.2882 29.04 0.54
19.3232 29.04 0.54
19.3574 29.04 0.41
19.3934 28.91 0.41
19.4254 29.17 0.54
19.4612 29.04 0.28
19.4973 29.17 0.54
19.5353 29.04 0.54
19.5722 29.04 0.41
19.6098 29.17 0.41
19.6467 29.04 0.41
19.6830 29.04 0.41
19.7205 29.04 0.41
19.7534 28.91 0.54
19.7913 29.17 0.54
19.8337 29.04 0.54
19.8719 29.04 0.54
19.9090 29.04 0.54
19.9462 29.04 0.54
19.9805 29.04 0.54
20.0185 29.04 0.54
20.0549 29.17 0.41
20.0929 29.04 0.41
20.1274 29.04 0.41
20.1621 29.04 0.54
20.1983 29.04 0.54
20.2366 29.04 0.41
20.2696 29.04 0.41
20.3014 29.04 0.41
20.3373 29.04 0.41
20.3738 29.30 0.54
20.4118 29.04 0.41
20.4491 29.04 0.41
20.4862 29.17 0.41
20.5211 29.04 0.54
20.5554 29.04 0.41
20.5916 29.04 0.54
20.6306 29.04 0.54
20.6656 29.04 0.54
20.7030 29.17 0.54
20.7403 29.04 0.41
20.7729 29.04 0.54
20.8142 29.04 0.54
20.8458 29.04 0.41
20.8838 29.17 0.54
20.9199 29.04 0.54
20.9579 29.04 0.54
20.9978 29.17 0.41
21.0350 29.04 0.41
21.0711 29.04 0.41
21.1079 29.04 0.54
21.1448 29.04 0.41
21.1809 29.04 0.41
21.2153 29.04 0.54
21.2523 29.04 0.54
21.2847 29.04 0.41
21.3219 28.91 0.54
21.3574 28.66 0.41
21.3955 29.04 0.54
21.4323 29.04 0.54
21.4683 29.04 0.54
21.5057 29.04 0.54
21.5406 29.17 0.54
21.5762 29.04 0.54
21.6129 29.04 0.41
21.6488 29.04 0.54
21.6848 29.04 0.54
21.7217 28.91 0.41
21.7592 29.04 0.54
21.7933 29.04 0.41
21.8356 29.04 0.54
21.8710 29.04 0.54
21.9066 29.04 0.41
21.9428 29.04 0.54
21.9813 29.04 0.41
22.0176 28.91 0.41
22.0541 29.04 0.41
22.0908 29.04 0.41
22.1288 29.04 0.41
22.1643 29.30 0.41
22.2008 29.04 0.54
22.2350 29.04 0.41
22.2704 29.04 0.41
22.3094 29.17 0.54
22.3439 28.91 0.54
22.3816 29.04 0.54
22.4193 29.04 0.41
22.4540 29.04 0.41
22.4870 29.04 0.41
22.5238 29.04 0.54
22.5612 29.04 0.41
22.5991 29.04 0.54
22.6363 28.91 0.41
22.6720 29.17 0.41
22.7093 29.04 0.41
22.7461 29.04 0.41
22.7838 28.53 0.54
22.8278 29.04 0.54
22.8651 29.04 0.41
22.9027 29.04 0.54
22.9395 29.17 0.54
22.9747 29.17 0.67
23.0128 29.04 0.41
23.0504 29.04 0.41
23.0868 29.04 0.54
23.1228 29.04 0.80
23.1606 29.04 0.41
23.1973 28.78 0.54
23.2313 29.04 0.41
23.2675 29.04 0.41
23.3038 28.91 0.41
23.3411 29.04 0.41
23.3761 29.04 0.41
23.4137 29.04 0.54
23.4514 29.17 0.54
23.4901 28.91 0.41
23.5286 28.78 0.54
23.5658 28.53 0.54
23.6060 29.04 0.41
23.6397 28.91 0.54
23.6766 28.91 0.41
23.7137 28.91 0.67
23.7497 29.04 0.41
23.7867 28.91 0.41
23.8277 29.04 0.41
23.8727 29.04 0.41
23.9101 29.04 0.41
23.9477 29.04 0.41
23.9826 29.04 0.54
24.0191 29.04 0.54
24.0572 29.04 0.54
24.0934 28.91 0.41
24.1308 28.91 0.41
24.1684 28.91 0.54
24.2054 28.91 0.41
24.2410 28.91 0.41
24.2789 28.91 0.41
24.3157 28.53 0.15
24.3530 28.91 0.54
24.3902 28.91 0.54
24.4267 29.04 0.41
24.4611 28.91 0.54
24.4998 29.04 0.54
24.5359 28.91 0.15
24.5729 28.91 0.41
24.6116 28.91 0.28
24.6458 27.62 0.54
24.6826 28.91 0.41
24.7205 28.91 0.54
24.7569 28.91 0.54
24.8060 29.04 0.41
24.8445 28.91 0.41
24.8798 28.91 0.54
24.9178 28.91 0.41
24.9504 29.30 0.54
24.9878 28.91 0.54
25.0249 28.78 0.54
25.0562 28.91 0.54
25.0942 28.91 0.54
25.1318 28.91 0.54
25.1639 28.91 0.54
25.2005 28.91 0.41
25.2379 28.91 -0.23
25.2745 28.91 0.41
25.3108 28.91 0.28
25.3483 28.78 0.41
25.3846 28.91 0.41
25.4172 28.91 0.54
25.4543 28.91 0.41
25.4895 28.91 0.41
25.5273 28.91 0.54
25.5643 28.91 0.54
25.6017 28.91 0.28
25.6381 28.91 0.41
25.6761 28.91 0.41
25.7165 29.04 0.41
25.7541 28.91 0.54
25.7888 29.17 0.41
25.8324 28.91 0.54
25.8665 28.91 0.41
25.9012 28.91 0.41
25.9381 28.91 0.41
25.9721 28.91 0.54
26.0072 29.04 0.54
26.0422 28.91 0.41
26.0762 28.91 0.15
26.1129 28.91 0.41
26.1500 28.91 0.54
26.1871 28.91 0.41
26.2223 29.04 0.54
26.2573 28.91 0.54
26.2915 28.91 0.54
26.3294 29.04 0.41
26.3638 28.91 0.54
26.4010 28.78 0.41
26.4375 28.91 0.41
26.4699 28.91 0.41
26.5073 29.04 0.54
26.5465 28.91 0.67
26.5797 28.66 0.54
26.6177 28.91 0.54
26.6502 28.66 0.54
26.6852 28.91 0.80
26.7230 28.66 0.54
26.7617 28.91 0.54
26.8063 29.17 0.41
26.8510 28.91 0.54
26.8874 28.91 0.54
26.9230 28.91 0.54
26.9617 28.91 0.54
26.9977 28.91 0.54
27.0351 28.91 0.54
27.0714 28.91 0.41
27.1084 28.91 0.54
27.1449 28.91 0.54
27.1818 29.30 0.54
27.2188 28.91 0.41
27.2571 28.91 0.54
27.2912 28.91 0.54
27.3284 28.91 0.41
27.3665 28.91 0.54
27.4028 29.04 0.54
27.4411 28.91 0.54
27.4778 28.91 0.54
27.5106 28.91 0.41
27.5465 28.91 0.54
27.5845 28.91 0.41
27.6209 29.04 0.41
27.6562 28.91 0.54
27.6937 28.91 0.54
27.7309 28.91 0.54
27.7686 28.91 0.41
27.8123 28.91 0.54
27.8489 28.91 0.41
27.8864 28.91 0.54
27.9237 28.91 0.41
27.9610 28.91 0.41
27.9965 29.04 0.41
28.0400 28.91 0.41
28.0749 28.91 0.67
28.1120 28.91 0.41
28.1480 28.91 0.41
28.1823 28.91 0.41
28.2173 28.91 0.80
28.2552 29.17 0.54
28.2923 28.91 0.41
28.3293 28.66 0.41
28.3664 28.91 0.54
28.4030 28.91 0.54
28.4359 29.04 0.41
28.4730 28.78 0.54
28.5090 28.91 0.54
28.5418 29.04 0.54
28.5793 29.04 0.54
28.6164 29.17 0.54
28.6572 29.04 0.41
28.6922 28.91 0.54
28.7301 29.17 0.41
28.7665 28.91 0.41
28.8071 29.04 0.41
28.8466 28.91 0.41
28.8825 28.91 0.54
28.9202 28.91 0.41
28.9538 29.30 0.41
28.9897 28.78 0.54
29.0246 29.04 0.03
29.0618 28.91 0.54
29.0988 29.69 0.41
29.1355 28.91 0.93
29.1728 28.66 0.41
29.2113 29.04 1.06
29.2456 29.04 0.41
29.2839 29.04 0.80
29.3193 28.91 0.41
29.3561 29.04 0.41
29.3937 28.91 0.54
29.4304 29.04 0.41
29.4684 29.04 0.80
29.5008 28.91 0.80
29.5371 28.91 0.41
29.5737 29.04 0.54
29.6122 29.04 0.67
29.6489 29.04 0.41
29.6853 29.04 0.54
29.7225 28.91 0.41
29.7610 29.04 0.41
29.8017 29.04 0.54
29.8398 29.04 0.41
29.8782 29.04 0.41
29.9147 29.04 0.41
29.9499 29.04 0.41
29.9874 29.04 0.41
30.0251 28.91 0.54
30.0628 29.04 0.41
30.0978 28.14 0.41
30.1349 27.37 0.67
30.1718 26.59 0.54
30.2094 25.82 0.54
30.2441 25.17 0.41
30.2777 24.53 0.41
30.3141 23.88 0.41
30.3489 23.24 0.41
30.3836 22.59 0.41
30.4179 21.95 0.41
30.4560 21.30 0.54
30.4899 20.79 0.41
30.5241 20.27 0.54
30.5619 19.89 0.54
30.5974 19.24 0.67
30.6334 18.73 0.54
30.6682 18.34 0.54
30.7055 17.82 0.67
30.7384 17.31 0.54
30.7731 16.79 0.67
30.8198 16.27 0.80
30.8563 15.63 0.80
30.8934 15.24 0.80
30.9256 14.73 0.93
30.9635 14.34 0.93
31.0001 13.95 1.06
31.0349 13.44 1.19
31.0725 13.05 1.19
31.1100 12.66 1.32
31.1476 12.15 1.44
31.1835 11.76 1.57
31.2193 11.50 1.70
31.2565 10.99 1.96
31.2938 10.60 2.09
31.3281 10.34 2.35
31.3607 10.08 3.38
31.3934 10.21 9.70
31.4297 9.96 9.96
31.4654 9.57 10.08
31.5029 9.31 10.08
31.5397 8.92 10.08
31.5769 8.80 10.08
31.6134 8.28 10.08
31.6473 8.15 9.96
31.6829 7.76 9.96
31.7196 7.63 9.96
31.7570 7.38 9.96
31.7963 6.99 9.96
31.8380 6.73 9.96
31.8726 6.47 9.96
31.9096 6.34 9.96
31.9453 5.96 9.96
31.9836 5.83 9.96
32.0195 5.57 9.96
32.0545 5.31 10.08
32.0896 5.18 10.08
32.1259 5.06 10.08
32.1623 4.80 10.08
32.1999 4.67 10.21
32.2349 4.41 10.34
32.2695 4.28 10.34
32.3041 4.15 10.47
32.3396 4.02 10.47
32.3725 3.89 10.60
32.4088 3.77 10.60
32.4421 3.51 10.73
32.4764 3.51 10.73
32.5091 3.25 10.86
32.5416 3.25 10.86
32.5781 3.12 10.99
32.6147 2.99 11.12
32.6505 2.86 11.12
32.6859 2.61 11.25
32.7232 2.73 11.25
32.7583 2.48 11.37
32.8002 2.48 11.50
32.8374 2.35 11.50
32.8754 2.22 11.63
32.9113 2.22 11.63
32.9507 2.09 11.76
32.9841 1.96 12.02
33.0171 1.83 12.02
33.0517 1.96 12.02
33.0884 1.83 12.15
33.1265 1.70 12.15
33.1620 1.70 12.28
33.1955 1.57 12.41
33.2366 1.57 12.54
33.2736 1.44 12.41
33.3098 1.44 12.54
33.3430 1.44 12.79
33.3800 1.44 12.79
33.4132 1.32 12.79
33.4481 1.32 12.92
33.4862 1.19 13.05
33.5190 1.19 13.05
33.5564 1.06 13.05
33.5916 1.19 13.31
33.6289 1.06 13.31
33.6659 1.06 13.44
33.7036 0.93 13.44
33.7401 0.93 13.57
33.7763 0.93 13.70
33.8227 0.93 13.70
33.8549 0.93 13.82
33.8893 0.93 13.70
33.9238 0.80 13.82
33.9596 0.80 14.08
33.9938 0.80 14.08
34.0309 0.80 14.08
34.0682 0.80 14.21
34.1053 0.67 14.21
34.1407 0.67 14.34
34.1775 0.80 14.34
34.2157 0.67 14.47
34.2519 0.54 14.60
34.2877 0.67 14.47
34.3260 0.54 14.73
34.3619 0.67 14.73
34.3992 0.54 14.86
34.4379 0.54 14.86
34.4767 0.54 14.86
34.5137 0.67 14.99
34.5520 0.54 15.11
34.5859 0.41 15.11
34.6202 0.54 15.24
34.6581 0.54 15.37
34.6939 0.41 15.37
34.7313 0.41 15.50
34.7670 0.41 15.50
34.8107 0.41 15.63
34.8484 0.41 15.76
34.8889 0.54 15.76
34.9223 0.41 15.89
34.9564 0.54 15.89
34.9939 0.41 15.89
35.0269 0.41 15.89
35.0616 0.41 15.89
35.0989 0.41 16.02
35.1363 0.41 16.15
35.1721 0.41 16.27
35.2085 0.41 16.27
35.2540 0.41 16.40
35.2905 0.41 16.40
35.3286 0.41 16.53
35.3642 0.41 16.53
35.3987 0.41 16.53
35.4356 0.41 16.66
35.4707 0.41 16.79
35.5086 0.28 16.79
35.5452 0.41 16.79
35.5825 0.28 16.92
35.6205 0.41 16.92
35.6570 0.28 17.05
35.6949 0.41 17.05
35.7307 0.41 17.05
35.7675 0.41 17.31
35.8087 0.41 17.31
35.8486 0.41 17.31
35.8867 0.41 17.44
35.9227 0.28 17.44
35.9557 0.41 17.56
35.9909 0.28 17.56
36.0333 0.28 17.56
36.0704 0.28 17.69
36.1082 0.41 17.69
36.1443 0.28 17.82
36.1772 0.41 17.82
36.2100 0.28 17.82
36.2474 0.28 17.95
36.2841 0.28 17.95
36.3203 0.28 17.95
36.3563 0.28 18.08
36.3930 0.41 18.08
36.4289 0.41 18.08
36.4642 0.28 18.21
36.5011 0.28 18.21
36.5338 0.28 18.34
36.5701 0.28 18.34
36.6055 0.28 18.34
36.6455 0.28 18.34
36.6789 0.28 18.47
36.7137 0.28 18.47
36.7502 0.41 18.47
36.7914 0.41 18.73
36.8330 0.28 18.60
36.8642 0.28 18.60
36.9023 0.28 18.73
36.9375 0.28 18.73
36.9721 0.28 18.85
37.0083 0.28 18.85
37.0440 0.28 18.98
37.0802 0.41 18.98
37.1234 0.28 18.98
37.1603 0.41 18.98
37.1960 0.28 18.98
37.2344 0.41 19.11
37.2695 0.41 19.11
37.3062 0.28 19.11
37.3437 0.28 19.24
37.3801 0.15 19.24
37.4171 0.41 19.24
37.4549 0.28 19.37
37.4916 0.28 19.37
37.5280 0.41 19.37
37.5652 0.41 19.50
37.6027 0.41 19.37
37.6375 0.41 19.50
37.6743 0.28 19.50
37.7113 0.28 19.63
37.7489 0.41 19.63
37.7879 0.28 19.76
37.8316 0.41 19.63
37.8674 0.41 19.63
37.9053 0.28 19.76
37.9442 0.28 19.63
37.9843 0.28 19.76
38.0222 0.28 19.89
38.0603 0.28 19.89
38.0981 0.28 19.89
38.1352 0.28 19.89
38.1721 0.28 20.01
38.2064 0.28 20.01
38.2411 0.28 20.01
38.2731 0.28 20.01
38.3118 0.41 20.01
38.3459 0.41 20.14
38.3842 0.28 20.01
38.4179 0.41 20.14
38.4549 0.28 20.14
38.4875 0.28 20.14
38.5236 0.28 20.27
38.5602 0.28 20.27
38.5989 0.28 20.40
38.6354 0.28 20.40
38.6701 0.28 20.40
38.7079 0.28 20.40
38.7444 0.28 20.27
38.7811 0.41 20.27
38.8231 0.28 20.40
38.8595 0.28 20.40
38.8974 0.41 20.53
38.9293 0.41 20.40
38.9664 0.28 20.40
38.9993 0.28 20.40
39.0358 0.28 20.53
39.0764 0.28 20.53
39.1138 0.28 20.53
39.1502 0.28 20.53
39.1874 0.28 20.53
39.2210 0.28 20.53
39.2532 0.41 20.53
39.2903 0.28 20.66
39.3224 0.41 20.53
39.3603 0.28 20.66
39.3944 0.41 20.66
39.4293 0.41 20.66
39.4650 0.41 20.66
39.5011 0.28 20.79
39.5392 0.28 20.66
39.5762 0.28 20.66
39.6132 0.28 20.79
39.6487 0.28 20.66
39.6864 0.28 20.79
39.7239 0.28 20.79
39.7619 0.28 20.79
39.8081 0.28 20.79
39.8431 0.28 20.79
39.8775 0.41 20.79
39.9172 0.28 20.66
39.9538 0.28 20.79
39.9883 0.28 20.79
40.0225 0.28 20.79
40.0584 0.28 20.79
40.0923 0.28 20.79
40.1292 0.28 20.79
40.1673 0.28 20.79
40.2046 0.28 20.92
40.2439 0.41 20.79
40.2816 0.28 20.92
40.3179 0.28 20.92
40.3532 0.28 20.79
40.3918 0.28 20.92
40.4302 0.41 20.92
40.4637 0.41 20.92
40.5010 0.41 21.05
40.5383 0.28 20.79
40.5752 0.28 20.92
40.6121 0.28 20.92
40.6494 0.28 20.92
40.6846 0.28 20.92
40.7234 0.28 20.92
40.7596 0.41 20.79
40.8037 0.41 20.92
40.8409 0.28 20.92
40.8742 0.15 20.92
40.9120 0.28 20.92
40.9449 0.28 21.05
40.9816 0.28 20.92
41.0178 0.28 21.05
41.0533 0.28 21.05
41.0924 0.28 20.92
41.1325 0.41 20.92
41.1685 0.28 21.05
41.2050 0.28 20.92
41.2423 0.28 21.05
41.2798 0.28 20.92
41.3174 0.28 21.05
41.3525 0.28 20.92
41.3906 0.28 20.92
41.4292 0.28 21.05
41.4625 0.28 21.05
41.4972 0.28 20.92
41.5343 0.28 20.92
41.5664 0.28 21.05
41.6085 0.28 20.92
41.6426 0.28 21.05
41.6762 0.28 20.92
41.7129 0.41 20.92
41.7512 0.28 21.05
41.7892 0.28 21.05
41.8338 0.28 21.05
41.8694 0.28 20.92
41.9068 0.28 21.05
41.9469 0.41 20.92
41.9850 0.28 20.79
42.0215 0.28 21.05
42.0568 0.28 21.05
42.0940 0.28 21.05
42.1311 0.28 21.05
42.1689 0.28 21.05
42.2052 0.28 21.05
42.2413 0.28 20.92
42.2797 0.41 20.92
42.3148 0.28 20.92
42.3492 0.28 21.05
42.3847 0.15 21.05
42.4220 0.28 21.05
42.4592 0.28 21.05
42.4971 0.28 21.05
42.5319 0.28 21.05
42.5684 0.28 21.05
42.6034 0.28 21.05
42.6386 0.28 21.05
42.6733 0.41 21.05
42.7099 0.28 20.92
42.7427 0.28 21.05
42.7782 0.41 21.05
42.8250 0.41 21.05
42.8592 0.28 20.92
42.8933 0.41 21.05
42.9308 0.28 21.05
42.9678 0.28 21.18
43.0049 0.28 21.05
43.0413 0.28 21.05
43.0742 0.28 21.05
43.1092 0.28 21.05
43.1419 0.28 21.05
43.1797 0.28 21.05
43.2182 0.28 20.92
43.2545 0.28 21.05
43.2917 0.28 21.05
43.3283 0.28 21.05
43.3655 0.28 21.05
43.4061 0.41 21.05
43.4431 0.41 21.05
43.4799 0.28 20.92
43.5162 0.28 21.05
43.5533 0.28 20.92
43.5881 0.28 20.92
43.6229 0.28 21.05
43.6562 0.28 21.18
43.6940 0.28 21.05
43.7276 0.41 21.05
43.7627 0.03 21.05
43.8055 0.28 21.05
43.8430 0.28 21.05
43.8793 0.28 21.05
43.9178 0.41 21.05
43.9526 0.28 21.05
43.9873 0.41 21.05
44.0240 0.28 20.92
44.0623 0.28 21.05
44.1026 0.28 21.05
44.1421 0.28 21.05
44.1757 0.15 21.05
44.2141 0.41 21.05
44.2504 0.28 21.05
44.2868 0.28 21.05
44.3220 0.28 21.05
44.3569 0.28 21.05
44.3930 0.28 21.05
44.4297 0.28 21.05
44.4670 0.41 21.05
44.5036 0.41 21.05
44.5409 0.28 21.05
44.5767 0.28 21.05
44.6148 0.28 21.05
44.6510 0.28 21.05
44.6870 0.28 21.05
44.7238 0.41 20.92
44.7626 0.15 21.05
44.7990 0.28 20.92
44.8380 0.28 21.18
44.8762 0.28 20.92
44.9122 0.41 21.05
44.9458 0.28 21.05
44.9820 0.28 21.05
45.0187 0.28 21.05
45.0546 0.28 21.05
45.0899 0.28 21.05
45.1304 0.28 21.05
45.1673 0.28 21.05
45.2042 0.28 20.92
45.2456 0.41 20.92
45.2814 0.41 21.05
45.3221 0.28 20.92
45.3586 0.28 20.92
45.3965 0.41 21.05
45.4343 0.41 20.92
45.4748 0.28 21.05
45.5103 0.28 21.05
45.5483 0.28 21.05
45.5810 0.28 21.05
45.6173 0.28 20.92
45.6548 0.28 21.05
45.6910 0.28 21.05
45.7289 0.28 21.05
45.7700 0.28 21.05
45.8166 0.28 20.92
45.8558 0.28 21.05
45.8921 0.28 21.05
45.9391 0.28 21.05
45.9779 0.28 21.05
46.0144 0.28 21.05
46.0543 0.28 21.05
46.0909 0.41 20.92
46.1240 0.28 21.05
46.1619 0.28 21.05
46.1978 0.41 21.05
46.2355 0.28 21.05
46.2722 0.28 21.05
46.3062 0.28 21.05
46.3423 0.28 21.05
46.3780 0.28 21.05
46.4127 0.28 21.05
46.4492 0.28 21.05
46.4845 0.28 21.05
46.5240 0.28 21.18
46.5592 0.28 21.05
46.5997 0.28 21.18
46.6360 0.28 21.05
46.6727 0.28 21.05
46.7110 0.28 21.05
46.7479 0.28 21.05
46.7863 0.28 21.05
46.8341 0.28 20.92
46.8709 0.28 21.05
46.9081 0.28 21.05
46.9450 0.28 21.05
46.9850 0.41 21.05
47.0229 0.28 21.05
47.0574 0.28 21.05
47.0924 0.28 21.05
47.1285 0.28 20.92
47.1653 0.28 20.92
47.2026 0.28 21.05
47.2390 0.28 21.05
47.2765 0.28 20.92
47.3130 0.28 21.05
47.3502 0.28 21.05
47.3832 0.41 20.92
47.4201 0.28 21.05
47.4562 0.28 20.92
47.4917 0.28 20.92
47.5296 0.28 20.92
47.5670 0.28 21.05
47.6028 0.41 21.05
47.6413 0.28 20.92
47.6773 0.28 21.05
47.7146 0.28 21.05
47.7517 0.28 20.92
47.7889 0.28 20.92
47.8341 0.28 20.92
47.8686 0.28 20.92
47.9026 0.28 21.05
47.9397 0.28 20.92
47.9767 0.28 21.05
48.0141 0.28 21.05
48.0495 0.28 20.92
48.0867 0.28 20.92
48.1243 0.28 21.05
48.1592 0.28 21.05
48.1976 0.41 21.05
48.2355 0.28 21.05
48.2736 0.28 21.05
48.3134 0.28 21.05
48.3501 0.28 21.05
48.3866 0.28 21.05
48.4215 0.28 21.05
48.4562 0.28 21.05
48.4892 0.28 21.05
48.5253 0.28 21.05
48.5619 0.28 21.05
48.6000 0.28 20.92
48.6339 0.28 21.05
48.6694 0.28 21.05
48.7039 0.28 21.05
48.7391 0.28 21.05
48.7755 0.41 21.05
48.8160 0.41 21.05
48.8524 0.41 21.05
48.8854 0.28 21.05
48.9216 0.28 21.05
48.9595 0.41 21.05
48.9976 0.28 20.92
49.0371 0.41 21.05
49.0744 0.28 21.05
49.1102 0.28 20.92
49.1481 0.28 21.05
49.1833 0.41 20.92
49.2205 0.28 21.05
49.2572 0.28 21.05
49.2946 0.28 21.18
49.3327 0.28 21.05
49.3691 0.28 21.05
49.4023 0.41 21.05
49.4429 0.28 21.05
49.4857 0.41 21.05
49.5252 0.28 21.05
49.5621 0.28 21.05
49.5990 0.41 21.05
49.6357 0.28 20.92
49.6732 0.28 21.05
49.7094 0.28 21.05
49.7468 0.28 21.05
49.7839 0.28 21.05
49.8268 0.28 21.05
49.8652 0.28 21.05
49.9018 0.28 20.92
49.9387 0.28 21.05
49.9712 0.28 20.92
50.0067 0.28 21.05
50.0444 0.28 21.05
50.0817 0.28 21.05
50.1180 0.28 21.05
50.1545 0.41 20.92
50.1934 0.28 21.05
50.2302 0.28 21.05
50.2667 0.28 21.05
50.3038 0.28 21.05
50.3418 0.28 20.92
50.3808 0.28 21.05
50.4185 0.41 20.92
50.4534 0.28 21.05
50.4876 0.41 21.05
50.5222 0.28 21.05
50.5575 0.28 21.05
50.5900 0.28 21.05
50.6268 0.41 21.05
50.6614 0.28 21.05
50.6959 0.28 20.92
50.7311 0.28 20.92
50.7659 0.28 20.92
50.8124 0.41 21.05
50.8461 0.28 20.92
50.8806 0.28 21.05
50.9137 0.28 21.05
50.9463 0.28 21.05
50.9836 0.28 21.05
51.0185 0.28 21.05
51.0562 0.28 21.05
51.0902 0.28 20.92
51.1229 0.41 20.92
51.1598 0.28 21.05
51.1970 0.28 21.05
51.2288 0.28 20.92
51.2637 0.28 21.05
51.2992 0.28 21.05
51.3347 0.28 21.05
51.3729 0.41 21.05
51.4053 0.28 20.92
51.4397 0.28 20.92
51.4742 0.28 21.05
51.5120 0.28 21.05
51.5500 0.28 21.05
51.5890 0.28 21.05
51.6262 0.28 21.05
51.6588 0.28 21.05
51.6961 0.28 21.05
51.7324 0.15 21.05
51.7691 0.28 21.18
51.8148 0.28 20.92
51.8515 0.41 21.05
51.8885 0.28 20.92
51.9217 0.28 21.05
51.9564 0.28 21.05
51.9943 0.41 20.92
52.0308 0.28 20.92
52.0681 0.28 21.05
52.1055 0.28 21.05
52.1380 0.28 21.05
52.1751 0.15 21.05
52.2118 0.28 21.05
52.2474 0.28 21.05
52.2848 0.28 21.05
52.3213 0.28 20.92
52.3596 0.28 20.92
52.3969 0.28 21.05
52.4309 0.41 21.05
52.4643 0.28 21.05
52.5018 0.41 21.05
52.5394 0.28 21.05
52.5765 0.28 20.92
52.6141 0.28 20.92
52.6467 0.28 21.05
52.6786 0.41 20.92
52.7143 0.41 21.05
52.7519 0.28 21.05
52.7950 0.28 21.05
52.8343 0.28 21.05
52.8708 0.28 21.05
52.9083 0.28 21.05
52.9411 0.15 20.92
52.9769 0.28 21.05
53.0147 0.28 21.05
53.0522 0.28 21.05
53.0925 0.28 21.05
53.1287 0.28 20.92
53.1659 0.28 21.05
53.2021 0.28 21.05
53.2399 0.28 21.05
53.2766 0.28 21.05
53.3136 0.28 21.05
53.3500 0.28 21.05
53.3872 0.28 21.05
53.4284 0.28 20.92
53.4650 0.41 20.79
53.5011 0.28 21.05
53.5388 0.28 20.92
53.5756 0.28 20.92
53.6131 0.28 21.05
53.6479 0.28 20.92
53.6860 0.28 21.05
53.7221 0.28 20.92
53.7591 0.28 21.05
53.8029 0.28 20.92
53.8402 0.28 21.05
53.8735 0.28 21.05
53.9162 0.28 21.05
53.9523 0.28 21.05
53.9895 0.28 21.05
54.0249 0.28 21.05
54.0590 0.28 21.05
54.0959 0.28 21.05
54.1333 0.28 20.92
54.1701 0.28 21.05
54.2054 0.28 21.05
54.2390 0.28 21.05
54.2748 0.15 20.92
54.3095 0.28 20.92
54.3455 0.28 20.92
54.3827 0.28 21.05
54.4196 0.28 20.92
time[sec] Pin[KPa] Pout[KPa]
06 24 19 16:09:18
0.1087 0.28 0.41
0.2004 0.80 0.41
0.2423 1.83 0.54
0.2818 2.61 0.54
0.3194 3.38 0.54
0.3616 4.41 0.54
0.3985 5.18 0.41
0.4362 5.96 0.41
0.4714 6.73 0.41
0.5089 7.38 0.54
0.5454 8.15 0.41
0.5878 8.92 0.41
0.6221 9.70 0.41
0.6601 10.34 0.54
0.6971 10.99 0.41
0.7348 11.76 0.41
0.7712 12.41 0.54
0.8084 13.05 0.54
0.8495 13.70 0.41
0.8867 14.34 0.41
0.9238 14.99 0.54
0.9581 15.50 0.54
0.9949 16.15 0.54
1.0323 16.66 0.54
1.0692 17.31 0.41
1.1052 17.82 0.54
1.1461 18.21 0.41
1.1892 18.73 0.54
1.2263 19.37 0.54
1.2616 19.89 0.41
1.2992 20.27 0.54
1.3380 20.79 0.41
1.3723 21.30 0.41
1.4085 21.69 0.54
1.4455 22.08 0.54
1.4830 22.46 0.54
1.5198 22.85 0.41
1.5578 23.24 0.41
1.5956 23.75 0.54
1.6318 24.01 0.41
1.6681 24.53 0.41
1.7057 24.79 0.41
1.7410 25.04 0.54
1.7789 25.43 0.41
1.8159 25.82 0.41
1.8522 25.95 0.54
1.8904 26.33 0.54
1.9252 26.59 0.41
1.9625 26.72 0.54
1.9999 27.11 0.41
2.0383 27.24 0.41
2.0792 27.62 0.54
2.1136 27.88 0.54
2.1622 28.01 0.54
2.2010 28.27 0.41
2.2379 28.53 0.54
2.2741 28.78 0.41
2.3103 28.91 0.41
2.3478 29.04 0.54
2.3861 29.30 0.41
2.4236 29.43 0.41
2.4623 29.56 0.41
2.5007 29.69 0.41
2.5348 29.82 0.41
2.5730 29.94 0.41
2.6096 30.07 0.54
2.6469 30.33 0.41
2.6841 30.33 0.54
2.7211 30.46 0.41
2.7539 30.72 0.41
2.7895 30.72 0.41
2.8267 30.72 0.41
2.8604 30.85 0.41
2.8974 30.85 0.41
2.9290 30.98 0.54
2.9711 31.11 0.54
3.0078 31.11 0.41
3.0452 31.23 0.54
3.0822 31.23 0.41
3.1170 31.23 0.41
3.1610 31.36 0.67
3.1993 31.49 0.54
3.2366 31.49 0.54
3.2741 31.62 0.54
3.3117 31.75 0.54
3.3466 31.75 0.54
3.3837 31.75 0.67
3.4223 31.75 0.54
3.4564 31.88 0.41
3.4943 31.75 0.41
3.5314 31.88 0.41
3.5688 31.88 0.41
3.6021 31.88 0.41
3.6391 32.01 0.41
3.6745 32.01 0.54
3.7120 32.01 0.41
3.7501 32.01 0.54
3.7845 32.01 0.54
3.8197 32.14 0.54
3.8539 32.14 0.54
3.8948 32.14 0.54
3.9324 32.14 0.54
3.9718 32.14 0.54
4.0070 32.14 0.54
4.0441 32.14 0.41
4.0813 32.14 0.41
4.1180 32.27 0.54
4.1647 32.39 0.41
4.2047 32.27 0.41
4.2388 32.39 0.28
4.2771 32.27 0.41
4.3129 32.27 0.54
4.3494 32.27 0.54
4.3923 32.39 0.54
4.4268 32.27 0.54
4.4648 32.27 0.54
4.5012 32.39 0.54
4.5376 32.39 0.54
4.5727 32.39 0.41
4.6082 32.39 0.41
4.6442 32.39 0.41
4.6818 32.39 0.41
4.7187 32.39 0.54
4.7555 32.27 0.41
4.7923 32.39 0.41
4.8301 32.39 0.41
4.8684 32.27 0.54
4.9021 32.27 0.54
4.9381 32.39 0.41
4.9689 32.39 0.54
5.0057 32.39 0.41
5.0421 32.39 0.41
5.0758 32.52 0.54
5.1109 32.39 0.54
5.1574 32.39 0.54
5.1932 32.39 0.54
5.2307 32.39 0.41
5.2667 32.39 0.54
5.3019 32.39 0.41
5.3385 32.39 0.54
5.3756 32.39 0.41
5.4072 32.52 0.54
5.4435 32.52 0.41
5.4807 32.52 0.54
5.5192 32.39 0.54
5.5529 32.52 0.41
5.5914 32.52 0.41
5.6297 32.52 0.54
5.6671 32.52 0.54
5.7037 32.39 0.54
5.7401 32.52 0.54
5.7774 32.39 0.54
5.8143 32.52 0.41
5.8501 32.52 0.54
5.8872 32.39 0.54
5.9225 32.52 0.54
5.9608 32.52 0.67
5.9975 32.52 0.54
6.0347 32.52 0.54
6.0752 32.52 0.41
6.1141 32.52 0.54
6.1846 32.52 0.54
6.2219 32.65 0.54
6.2602 32.52 0.41
6.2973 32.52 0.41
6.3329 32.52 0.41
6.3703 32.52 0.41
6.4059 32.52 0.41
6.4437 32.52 0.41
6.4804 32.52 0.54
6.5181 32.52 0.41
6.5507 32.52 0.41
6.5853 32.52 0.41
6.6204 32.52 0.41
6.6574 32.52 0.54
6.6932 32.52 0.41
6.7276 32.52 0.41
6.7630 32.52 0.54
6.7997 32.65 0.54
6.8333 32.52 0.41
6.8687 32.52 0.41
6.9065 32.52 0.41
6.9398 32.65 0.54
6.9727 32.65 0.28
7.0097 32.65 0.41
7.0446 32.52 0.41
7.0822 32.65 0.41
7.1201 32.52 0.54
7.1649 32.52 0.41
7.2036 32.52 0.54
7.2428 32.52 0.54
7.2788 32.52 0.41
7.3164 32.52 0.41
7.3511 32.52 0.54
7.3953 32.65 0.41
7.4309 32.52 0.41
7.4669 32.52 0.41
7.5049 32.52 0.41
7.5423 32.52 0.54
7.5809 32.65 0.54
7.6174 32.52 0.54
7.6523 32.52 0.54
7.6881 32.65 0.41
7.7244 32.65 0.54
7.7630 32.65 0.41
7.7994 32.65 0.41
7.8403 32.52 0.67
7.8778 32.65 0.41
7.9111 32.65 0.41
7.9475 32.52 0.41
7.9878 32.52 0.41
8.0248 32.52 0.54
8.0626 32.78 0.41
8.0972 32.52 0.41
8.1373 32.52 0.54
8.1810 32.65 0.41
8.2170 32.65 0.41
8.2550 32.65 0.54
8.2919 32.65 0.41
8.3281 32.65 0.54
8.3631 32.65 0.28
8.3969 32.65 0.41
8.4344 32.65 0.54
8.4694 32.52 0.54
8.5042 32.52 0.41
8.5393 32.65 0.67
8.5732 32.65 0.41
8.6111 32.78 0.41
8.6508 32.65 0.54
8.6878 32.65 0.54
8.7254 32.65 0.41
8.7621 32.65 0.54
8.7994 32.65 0.54
8.8327 32.65 0.54
8.8647 32.65 0.41
8.9030 32.65 0.41
8.9382 32.65 0.54
8.9751 32.65 0.54
9.0103 32.65 0.41
9.0449 32.78 0.41
9.0804 32.65 0.54
9.1139 32.65 0.54
9.1610 32.65 0.54
9.1960 32.65 0.54
9.2326 32.65 0.54
9.2701 32.65 0.67
9.3071 32.65 0.41
9.3428 32.65 0.54
9.3810 32.65 0.54
9.4179 32.65 0.41
9.4536 32.65 0.54
9.4921 32.78 0.54
9.5286 32.65 0.54
9.5656 32.65 0.54
9.6006 32.65 0.54
9.6368 32.65 0.41
9.6740 32.65 0.41
9.7132 32.65 0.41
9.7507 32.65 0.41
9.7847 32.65 0.41
9.8201 32.65 0.41
9.8542 32.65 0.41
9.8916 32.65 0.41
9.9255 32.78 0.41
9.9624 32.65 0.41
9.9991 32.65 0.67
10.0389 32.65 0.41
10.0760 32.65 0.54
10.1132 32.65 0.41
10.1571 32.65 0.54
10.1956 32.65 0.41
10.2286 32.78 0.41
10.2631 32.78 0.54
10.2972 32.65 0.41
10.3351 32.78 0.54
10.3714 32.65 0.54
10.4121 32.65 0.54
10.4508 32.65 0.54
10.4864 32.78 0.41
10.5207 32.65 0.41
10.5546 32.65 0.54
10.5973 32.65 0.54
10.6347 32.78 0.54
10.6694 32.78 0.41
10.7060 32.78 0.54
10.7444 32.65 0.54
10.7791 32.65 0.41
10.8147 32.78 0.41
10.8553 32.65 0.41
10.8910 32.65 0.54
10.9285 32.78 0.41
10.9660 32.65 0.54
11.0028 32.65 0.41
11.0401 32.78 0.54
11.0767 32.78 0.41
11.1136 32.78 0.41
11.1558 32.65 0.54
11.1945 32.65 0.41
11.2311 32.65 0.41
11.2689 32.78 0.54
11.3034 32.65 0.41
11.3373 32.78 0.41
11.3715 32.78 0.41
11.4082 32.78 0.41
11.4425 32.65 0.41
11.4800 32.78 0.54
11.5145 32.78 0.54
11.5516 32.78 0.41
11.5863 32.78 0.41
11.6238 32.78 0.41
11.6605 32.78 0.54
11.6996 32.78 0.54
11.7360 32.78 0.41
11.7726 32.65 0.28
11.8089 32.65 0.41
11.8466 32.78 0.41
11.8839 32.78 0.54
11.9182 32.78 0.54
11.9530 32.78 0.54
11.9901 32.78 0.54
12.0260 32.78 0.54
12.0636 32.78 0.54
12.1004 32.78 0.54
12.1406 32.65 0.54
12.1833 32.78 0.41
12.2178 32.78 0.54
12.2551 32.78 0.54
12.2926 32.91 0.41
12.3299 32.78 0.54
12.3670 32.78 0.41
12.3997 32.78 0.41
12.4363 32.78 0.54
12.4735 32.78 0.41
12.5135 32.78 0.54
12.5511 32.78 0.54
12.5864 32.78 0.54
12.6246 32.78 0.41
12.6631 32.78 0.54
12.7026 32.78 0.54
12.7405 32.78 0.54
12.7746 32.78 0.54
12.8112 32.91 0.41
12.8488 32.78 0.54
12.8869 32.65 0.41
12.9246 32.78 0.41
12.9647 32.78 0.54
12.9997 32.78 0.41
13.0418 32.78 0.54
13.0802 32.78 0.54
13.1145 32.78 0.54
13.1676 32.78 0.54
13.2060 32.78 0.41
13.2430 32.78 0.41
13.2781 32.78 0.54
13.3123 32.78 0.41
13.3511 32.78 0.41
13.3896 32.78 0.41
13.4237 32.78 0.28
13.4628 32.78 0.54
13.4972 32.78 0.54
13.5344 32.91 0.41
13.5667 32.78 0.54
13.6038 32.78 0.41
13.6404 32.78 0.54
13.6767 32.78 0.41
13.7146 32.78 0.54
13.7494 32.78 0.54
13.7869 32.78 0.54
13.8242 32.78 0.28
13.8594 32.91 0.41
13.8948 32.78 0.54
13.9293 32.78 0.54
13.9636 32.78 0.54
14.0010 32.78 0.41
14.0352 32.78 0.41
14.0708 32.78 0.41
14.1080 32.78 0.54
14.1520 32.78 0.54
14.1920 32.78 0.54
14.2265 32.91 0.54
14.2591 32.91 0.54
14.2949 32.78 0.41
14.3325 32.78 0.41
14.3655 32.91 0.54
14.4008 32.78 0.41
14.4350 32.91 0.54
14.4719 32.91 0.54
14.5101 32.78 0.41
14.5462 32.91 0.41
14.5828 32.78 0.54
14.6150 32.91 0.41
14.6500 32.91 0.54
14.6875 32.91 0.54
14.7227 32.91 0.54
14.7580 32.78 0.54
14.7955 32.78 0.54
14.8303 32.78 0.54
14.8652 32.78 0.54
14.9017 32.91 0.54
14.9395 32.91 0.54
14.9748 32.91 0.41
15.0130 32.78 0.41
15.0455 32.78 0.41
15.0780 32.91 0.54
15.1150 32.78 0.41
15.1631 32.91 0.54
15.2005 32.78 0.54
15.2371 32.78 0.41
15.2745 32.91 0.54
15.3121 32.91 0.41
15.3468 32.91 0.41
15.3846 32.91 0.54
15.4217 32.91 0.41
15.4588 32.91 0.54
15.4952 32.91 0.41
15.5342 32.91 0.54
15.5687 32.91 0.54
15.6066 32.91 0.41
15.6433 32.78 0.54
15.6785 32.91 0.54
15.7156 32.91 0.54
15.7520 32.91 0.54
15.7886 32.78 0.54
15.8255 32.78 0.54
15.8605 32.91 0.54
15.8973 32.91 0.41
15.9347 32.91 0.54
15.9733 32.91 0.54
16.0125 32.78 0.41
16.0446 32.91 0.54
16.0802 32.91 0.41
16.1170 32.91 0.54
16.1636 32.91 0.54
16.2007 32.78 0.41
16.2330 32.91 0.41
16.2683 32.91 0.41
16.3070 32.91 0.41
16.3435 32.91 0.41
16.3807 32.91 0.54
16.4170 32.91 0.41
16.4523 32.78 0.41
16.4890 32.91 0.41
16.5275 32.91 0.54
16.5662 32.78 0.54
16.6028 32.91 0.54
16.6370 32.91 0.54
16.6756 32.78 0.54
16.7113 32.78 0.54
16.7490 32.91 0.41
16.7868 32.91 0.41
16.8216 32.91 0.41
16.8585 32.91 0.54
16.8925 33.04 0.41
16.9253 32.91 0.67
16.9620 32.91 0.41
16.9996 32.91 0.54
17.0406 32.91 0.54
17.0773 32.91 0.54
17.1125 32.91 0.54
17.1554 32.91 0.54
17.1953 32.91 0.54
17.2333 32.91 0.41
17.2696 33.04 0.54
17.3071 32.91 0.41
17.3384 32.91 0.54
17.3752 32.91 0.54
17.4129 32.78 0.54
17.4453 32.91 0.41
17.4779 32.91 0.54
17.5147 32.78 0.41
17.5509 32.78 0.54
17.5889 32.91 0.54
17.6289 32.91 0.54
17.6643 32.91 0.54
17.6991 32.91 0.54
17.7419 32.91 0.67
17.7768 32.91 0.54
17.8136 32.91 0.54
17.8489 32.91 0.54
17.8836 32.91 0.41
17.9169 32.91 0.41
17.9518 32.91 0.41
17.9860 33.04 0.41
18.0217 32.91 0.54
18.0557 32.91 0.41
18.0928 32.91 0.41
18.1292 32.91 0.41
18.1739 32.91 0.41
18.2104 32.91 0.41
18.2473 32.91 0.67
18.2810 33.04 0.54
18.3181 32.91 0.41
18.3529 32.91 0.54
18.3875 32.91 0.54
18.4246 32.91 0.54
18.4592 32.91 0.54
18.4946 32.91 0.54
18.5311 32.91 0.41
18.5687 32.91 0.54
18.6050 32.91 0.54
18.6419 32.91 0.54
18.6794 32.91 0.67
18.7134 32.91 0.54
18.7541 32.91 0.41
18.7922 32.91 0.54
18.8292 32.91 0.54
18.8662 32.91 0.41
18.9042 32.91 0.41
18.9440 32.91 0.54
18.9813 32.91 0.54
19.0180 32.91 0.41
19.0536 32.91 0.54
19.0928 32.91 0.41
19.1290 32.91 0.41
19.1729 32.91 0.54
19.2097 32.91 0.41
19.2473 32.91 0.41
19.2842 33.04 0.54
19.3195 32.91 0.41
19.3532 32.91 0.41
19.3909 32.91 0.54
19.4291 32.91 0.41
19.4650 32.91 0.28
19.5102 33.04 0.54
19.5450 32.91 0.28
19.5838 32.91 0.54
19.6195 32.91 0.54
19.6535 32.91 0.41
19.6884 32.91 0.54
19.7223 32.91 0.41
19.7588 33.04 0.54
19.7958 32.91 0.54
19.8329 32.91 0.54
19.8703 32.91 0.54
19.9077 32.91 0.41
19.9448 32.91 0.41
19.9807 32.91 0.54
20.0158 32.91 0.54
20.0520 32.91 0.15
20.0875 32.91 0.54
20.1251 32.91 0.54
20.1697 32.91 0.54
20.2059 32.91 0.03
20.2410 32.91 0.54
20.2781 32.91 0.54
20.3160 32.91 0.41
20.3537 32.91 0.54
20.3913 32.91 0.54
20.4276 32.91 0.54
20.4643 32.91 0.54
20.4986 32.91 0.54
20.5320 32.91 0.54
20.5698 32.91 0.54
20.6071 32.91 0.41
20.6440 32.91 0.54
20.6832 32.91 0.54
20.7268 32.91 0.54
20.7612 33.04 0.41
20.7957 32.91 0.54
20.8307 32.91 0.41
20.8694 33.04 0.41
20.9068 32.91 0.54
20.9431 32.91 0.41
20.9796 32.91 0.41
21.0169 32.91 0.41
21.0516 32.91 0.41
21.0859 32.91 0.41
21.1241 32.91 0.54
21.1675 32.91 0.41
21.2050 32.91 0.54
21.2414 32.91 0.54
21.2792 32.91 0.54
21.3117 32.91 0.54
21.3464 32.91 0.54
21.3839 32.78 0.54
21.4217 32.91 0.54
21.4594 32.91 0.54
21.4918 32.91 0.41
21.5292 32.91 0.41
21.5634 32.91 0.54
21.5968 33.04 0.54
21.6342 32.91 0.54
21.6712 33.04 0.67
21.7089 32.91 0.54
21.7443 32.91 0.54
21.7805 32.91 0.54
21.8188 32.91 0.54
21.8559 32.91 0.41
21.8940 32.91 0.41
21.9293 32.91 0.41
21.9661 33.04 0.54
22.0023 32.91 0.54
22.0369 32.91 0.41
22.0741 33.04 0.41
22.1111 32.91 0.54
22.1499 32.91 0.54
22.1848 32.91 0.54
22.2191 32.91 0.54
22.2541 33.04 0.54
22.2882 32.91 0.54
22.3233 32.91 0.54
22.3599 32.91 0.54
22.3969 32.91 0.54
22.4326 32.91 0.54
22.4700 33.04 0.54
22.5063 32.91 0.54
22.5432 32.91 0.54
22.5774 32.91 0.41
22.6174 32.91 0.54
22.6507 32.91 0.54
22.6886 32.91 0.54
22.7247 32.91 0.41
22.7608 32.91 0.41
22.7980 32.91 0.67
22.8346 32.91 0.54
22.8707 32.91 0.41
22.9135 32.91 0.41
22.9500 32.91 0.54
22.9849 32.91 0.41
23.0196 32.91 0.41
23.0608 32.91 0.41
23.0977 32.91 0.41
23.1376 33.04 0.54
23.1819 32.78 0.41
23.2210 32.91 0.41
23.2579 32.91 0.41
23.2899 32.91 0.54
23.3246 32.91 0.54
23.3626 32.91 0.15
23.3998 32.78 0.54
23.4379 32.91 0.28
23.4745 32.39 0.54
23.5093 32.91 0.41
23.5478 32.91 0.54
23.5832 32.78 0.54
23.6213 32.91 0.93
23.6588 32.78 0.41
23.6950 32.91 0.54
23.7356 32.91 0.54
23.7727 32.91 0.54
23.8099 32.78 1.19
23.8450 32.91 0.54
23.8815 32.91 0.54
23.9200 32.91 0.54
23.9580 32.91 0.54
23.9936 32.78 0.54
24.0309 32.78 0.54
24.0688 32.78 0.54
24.1041 32.78 0.54
24.1474 32.78 0.54
24.1857 32.91 0.54
24.2230 32.78 0.41
24.2608 32.78 0.54
24.2965 32.78 0.54
24.3333 32.39 0.41
24.3674 32.91 0.54
24.3997 32.78 0.54
24.4363 32.91 0.67
24.4726 32.91 0.54
24.5093 32.52 0.41
24.5432 32.91 0.41
24.5787 32.91 -0.23
24.6169 32.78 0.54
24.6552 32.78 0.54
24.6911 33.04 0.54
24.7274 32.78 0.41
24.7646 32.78 0.41
24.8031 32.78 0.54
24.8425 32.91 0.54
24.8849 32.91 0.41
24.9167 32.91 0.54
24.9520 32.91 0.41
24.9847 32.91 0.54
25.0222 32.78 0.54
25.0599 32.78 0.54
25.0962 32.91 0.54
25.1331 32.14 0.67
25.1792 32.78 0.67
25.2137 32.91 0.54
25.2514 32.78 0.54
25.2850 32.91 -0.10
25.3218 32.78 0.54
25.3574 32.78 0.54
25.3949 32.91 0.41
25.4317 33.04 0.41
25.4675 32.78 0.41
25.5020 32.91 0.28
25.5376 32.78 0.67
25.5750 32.65 0.54
25.6109 32.78 0.54
25.6481 32.78 0.41
25.6866 32.78 0.28
25.7228 32.78 0.54
25.7595 32.78 0.93
25.7968 32.91 0.41
25.8327 32.65 0.54
25.8707 32.91 0.67
25.9073 33.56 0.54
25.9441 32.91 0.41
25.9763 32.78 0.54
26.0143 32.78 0.41
26.0466 32.91 0.28
26.0823 32.65 0.54
26.1195 32.91 0.54
26.1654 32.91 0.54
26.2021 32.78 0.03
26.2395 32.91 0.54
26.2766 32.78 0.54
26.3092 32.91 0.41
26.3493 32.91 0.54
26.3867 32.78 0.54
26.4239 32.78 0.41
26.4585 32.91 0.54
26.4963 32.91 0.41
26.5334 32.91 0.54
26.5703 32.91 0.54
26.6073 32.91 0.41
26.6429 32.78 0.67
26.6806 32.91 0.54
26.7164 32.91 0.54
26.7547 33.17 0.54
26.7919 32.91 0.54
26.8280 32.91 0.41
26.8656 32.91 0.54
26.9066 32.91 0.41
26.9426 32.78 0.54
26.9801 32.91 0.54
27.0149 32.91 0.41
27.0507 32.78 0.15
27.0819 32.91 0.54
27.1191 32.91 0.54
27.1638 32.91 0.54
27.2019 32.91 0.41
27.2379 32.91 0.54
27.2759 32.91 0.15
27.3112 33.30 0.41
27.3496 32.91 0.41
27.3854 32.91 0.41
27.4221 33.43 0.41
27.4598 32.91 0.41
27.4966 32.91 0.54
27.5334 33.04 0.15
27.5697 32.91 0.54
27.6070 33.04 0.54
27.6437 32.91 0.54
27.6770 33.04 0.54
27.7139 33.17 0.54
27.7505 32.91 0.54
27.7854 32.91 0.54
27.8238 32.91 0.54
27.8608 32.91 0.67
27.8981 32.78 0.54
27.9359 32.91 0.41
27.9755 33.04 0.54
28.0126 32.91 0.41
28.0472 32.91 0.54
28.0836 32.91 0.54
28.1168 32.91 0.54
28.1589 32.91 0.54
28.1961 32.91 0.54
28.2333 33.04 0.54
28.2725 32.91 1.19
28.3107 32.91 0.54
28.3474 33.04 0.54
28.3848 32.91 0.54
28.4202 32.91 0.41
28.4624 32.91 0.54
28.4985 32.91 0.54
28.5365 33.04 0.67
28.5725 32.91 0.41
28.6100 32.91 0.54
28.6460 33.30 0.54
28.6820 33.04 0.41
28.7180 32.91 0.54
28.7541 32.91 0.54
28.7910 32.91 0.54
28.8283 33.04 0.54
28.8601 32.91 0.54
28.8969 33.04 0.54
28.9332 33.04 0.54
28.9700 33.04 0.54
29.0082 33.17 0.41
29.0429 33.04 0.54
29.0797 32.91 0.41
29.1172 33.04 0.41
29.1641 33.17 0.54
29.2003 33.04 0.54
29.2372 33.04 0.41
29.2723 33.04 0.54
29.3126 33.04 0.54
29.3475 32.65 0.41
29.3831 33.04 0.41
29.4176 33.04 0.54
29.4523 33.04 0.54
29.4907 33.04 0.54
29.5282 33.04 0.15
29.5650 33.04 0.41
29.5993 32.91 0.93
29.6321 33.04 0.41
29.6676 33.04 0.54
29.7025 33.04 0.80
29.7483 33.04 0.41
29.7857 33.04 0.28
29.8232 32.91 0.67
29.8593 33.04 0.67
29.8972 33.17 0.54
29.9286 33.04 0.54
29.9659 33.04 0.54
30.0038 33.04 0.54
30.0395 33.17 0.41
30.0785 32.14 0.41
30.1133 31.23 0.41
30.1556 30.46 0.41
30.1941 29.43 0.41
30.2320 28.78 0.54
30.2692 27.88 0.54
30.3076 26.98 0.54
30.3462 26.33 0.54
30.3844 25.56 0.41
30.4195 24.92 0.41
30.4539 24.14 0.41
30.4901 23.50 0.41
30.5231 22.85 0.67
30.5592 22.34 0.54
30.5966 21.69 0.54
30.6323 21.05 0.54
30.6706 20.40 0.54
30.7073 19.76 0.54
30.7442 19.24 0.54
30.7803 18.85 0.67
30.8140 18.47 0.67
30.8512 17.95 0.67
30.8869 17.56 0.67
30.9238 16.92 0.80
30.9617 16.53 0.67
30.9990 16.02 0.80
31.0313 15.50 0.80
31.0656 15.11 0.80
31.1010 14.73 1.06
31.1344 14.34 1.06
31.1778 13.82 1.19
31.2145 13.44 1.32
31.2503 12.92 1.57
31.2870 12.54 1.44
31.3225 12.15 1.70
31.3621 11.76 1.96
31.3998 11.37 2.09
31.4325 10.99 2.22
31.4794 10.60 2.73
31.5143 10.21 7.25
31.5490 10.34 9.70
31.5832 10.08 9.83
31.6216 9.83 9.96
31.6612 9.44 9.83
31.6986 9.05 9.96
31.7359 8.80 9.96
31.7764 8.54 9.96
31.8129 8.15 10.08
31.8493 7.89 10.08
31.8866 7.63 10.21
31.9243 7.25 10.08
31.9607 7.12 10.21
31.9940 6.86 10.21
32.0304 6.60 10.21
32.0664 6.47 10.21
32.1042 6.09 10.21
32.1457 5.96 10.21
32.1854 5.57 10.34
32.2239 5.44 10.34
32.2603 5.18 10.34
32.2956 5.06 10.34
32.3325 4.80 10.47
32.3703 4.67 10.47
32.4080 4.54 10.47
32.4438 4.28 10.60
32.4797 4.15 10.47
32.5184 4.02 10.60
32.5543 3.89 10.73
32.5906 3.64 10.73
32.6240 3.64 10.73
32.6612 3.51 10.73
32.6975 3.25 10.86
32.7357 3.25 10.99
32.7704 2.99 10.99
32.8045 2.86 10.99
32.8393 2.86 11.12
32.8731 2.73 11.12
32.9098 2.61 11.25
32.9472 2.48 11.25
32.9848 2.48 11.37
33.0207 2.35 11.37
33.0584 2.22 11.50
33.0961 2.22 11.63
33.1316 2.09 11.63
33.1780 2.09 11.76
33.2117 1.83 11.76
33.2469 1.83 12.02
33.2816 1.70 12.15
33.3152 1.70 12.02
33.3536 1.70 12.15
33.3904 1.57 12.28
33.4262 1.57 12.28
33.4624 1.44 12.41
33.4996 1.44 12.41
33.5378 1.44 12.54
33.5745 1.32 12.66
33.6108 1.32 12.79
33.6472 1.32 12.92
33.6854 1.19 12.92
33.7226 1.19 12.79
33.7586 1.19 12.92
33.7961 1.06 13.05
33.8286 0.93 13.18
33.8654 0.93 13.18
33.8978 0.93 13.31
33.9347 0.93 13.31
33.9716 0.93 13.31
34.0091 0.93 13.44
34.0413 0.80 13.57
34.0784 0.80 13.57
34.1149 0.80 13.57
34.1523 0.80 13.70
34.1985 0.67 13.70
34.2332 0.80 13.95
34.2693 0.67 13.95
34.3064 0.67 13.95
34.3435 0.67 14.08
34.3768 0.67 14.21
34.4149 0.67 14.21
34.4487 0.67 14.21
34.4824 0.67 14.34
34.5165 0.54 14.34
34.5524 0.67 14.47
34.5862 0.54 14.47
34.6231 0.67 14.60
34.6581 0.54 14.60
34.6910 0.54 14.60
34.7273 0.67 14.73
34.7624 0.54 14.86
34.8013 0.54 14.99
34.8395 0.54 14.86
34.8761 0.54 15.11
34.9140 0.41 15.11
34.9496 0.41 15.24
34.9836 0.41 15.24
35.0160 0.41 15.37
35.0529 0.54 15.37
35.0906 0.41 15.37
35.1228 0.41 15.37
35.1672 0.41 15.50
35.2037 0.41 15.50
35.2413 0.54 15.50
35.2777 0.41 15.76
35.3164 0.41 15.63
35.3516 0.41 15.76
35.3873 0.41 15.76
35.4261 0.41 15.89
35.4625 0.41 16.02
35.4993 0.41 16.15
35.5348 0.41 16.15
35.5724 0.41 16.15
35.6098 0.41 16.15
35.6474 0.41 16.27
35.6868 0.41 16.27
35.7247 0.41 16.15
35.7606 0.41 16.40
35.7970 0.41 16.40
35.8349 0.41 16.53
35.8722 0.41 16.53
35.9089 0.41 16.66
35.9456 0.28 16.66
35.9824 0.41 16.79
36.0200 0.28 16.79
36.0581 0.41 16.92
36.0893 0.28 16.92
36.1263 0.41 17.05
36.1703 0.41 17.18
36.2044 0.28 17.05
36.2411 0.28 17.18
36.2761 0.41 17.18
36.3139 0.41 17.18
36.3515 0.28 17.31
36.3860 0.28 17.31
36.4248 0.28 17.44
36.4621 0.28 17.44
36.4983 0.28 17.56
36.5353 0.41 17.44
36.5713 0.28 17.56
36.6062 0.28 17.56
36.6409 0.41 17.56
36.6792 0.41 17.69
36.7142 0.28 17.69
36.7525 0.41 17.69
36.7881 0.28 17.82
36.8263 0.41 17.82
36.8641 0.28 17.95
36.8970 0.28 17.95
36.9316 0.41 18.08
36.9684 0.41 17.95
37.0052 0.28 18.08
37.0437 0.41 18.21
37.0793 0.28 18.21
37.1160 0.28 18.08
37.1557 0.41 18.21
37.1955 0.28 18.21
37.2310 0.28 18.34
37.2685 0.28 18.34
37.3046 0.41 18.34
37.3431 0.28 18.47
37.3787 0.41 18.47
37.4171 0.41 18.47
37.4491 0.41 18.60
37.4836 0.28 18.60
37.5165 0.41 18.60
37.5515 0.28 18.60
37.5850 0.28 18.73
37.6215 0.28 18.73
37.6558 0.41 18.73
37.6906 0.28 18.73
37.7275 0.28 18.73
37.7651 0.41 18.85
37.8016 0.28 18.98
37.8376 0.41 18.85
37.8751 0.28 18.98
37.9120 0.41 18.98
37.9487 0.41 18.98
37.9842 0.28 18.98
38.0213 0.28 18.98
38.0595 0.28 18.98
38.0952 0.41 18.98
38.1318 0.28 18.98
38.1745 0.41 19.11
38.2107 0.41 19.24
38.2475 0.41 19.11
38.2850 0.28 19.24
38.3221 0.28 19.24
38.3566 0.28 19.24
38.4001 0.41 19.24
38.4365 0.41 19.24
38.4727 0.28 19.37
38.5098 0.28 19.24
38.5452 0.28 19.37
38.5824 0.28 19.37
38.6233 0.41 19.37
38.6606 0.41 19.50
38.6985 0.28 19.50
38.7333 0.28 19.50
38.7665 0.41 19.63
38.8056 0.41 19.50
38.8419 0.41 19.50
38.8777 0.28 19.63
38.9143 0.28 19.50
38.9563 0.28 19.63
38.9927 0.28 19.63
39.0310 0.28 19.50
39.0630 0.28 19.76
39.0992 0.28 19.63
39.1407 0.28 19.76
39.1804 0.41 19.63
39.2181 0.28 19.63
39.2553 0.41 19.76
39.2930 0.28 19.76
39.3293 0.28 19.63
39.3649 0.28 19.76
39.4007 0.28 19.76
39.4356 0.15 19.76
39.4721 0.28 19.89
39.5087 0.28 19.76
39.5448 0.28 19.76
39.5822 0.28 19.76
39.6197 0.28 19.76
39.6568 0.28 19.76
39.6922 0.28 19.89
39.7294 0.28 19.89
39.7667 0.28 19.89
39.8059 0.28 19.89
39.8411 0.28 19.89
39.8758 0.41 19.89
39.9089 0.28 19.89
39.9441 0.41 19.89
39.9848 0.28 19.89
40.0197 0.28 19.89
40.0542 0.28 19.89
40.0914 0.28 19.89
40.1262 0.28 20.01
40.1714 0.28 20.01
40.2094 0.28 19.89
40.2460 0.28 20.01
40.2838 0.28 19.89
40.3201 0.28 20.01
40.3576 0.28 20.01
40.3951 0.28 20.01
40.4299 0.41 20.01
40.4666 0.41 20.01
40.5036 0.28 20.01
40.5410 0.28 20.01
40.5788 0.28 20.01
40.6147 0.28 20.14
40.6517 0.28 20.01
40.6875 0.28 19.89
40.7213 0.28 20.14
40.7568 0.28 20.01
40.7915 0.28 20.01
40.8265 0.28 20.01
40.8699 0.41 20.01
40.9065 0.41 20.01
40.9419 0.28 20.01
40.9757 0.28 20.01
41.0116 0.28 20.01
41.0491 0.28 20.14
41.0854 0.41 20.14
41.1215 0.28 20.14
41.1636 0.28 20.14
41.2016 0.28 20.01
41.2383 0.28 20.01
41.2713 0.28 20.14
41.3082 0.28 20.14
41.3429 0.15 20.01
41.3796 0.28 20.14
41.4170 0.28 20.01
41.4534 0.28 20.14
41.4912 0.28 20.01
41.5282 0.28 20.14
41.5659 0.15 20.14
41.6007 0.28 20.14
41.6367 0.28 20.14
41.6751 0.28 20.14
41.7117 0.41 20.01
41.7493 0.28 20.27
41.7858 0.28 20.14
41.8238 0.28 20.01
41.8609 0.28 20.14
41.9006 0.28 20.14
41.9384 0.28 20.01
41.9752 0.28 20.01
42.0095 0.28 20.14
42.0457 0.28 20.14
42.0807 0.28 20.14
42.1176 0.28 20.01
42.1675 0.41 20.14
42.2036 0.28 20.01
42.2413 0.28 20.01
42.2782 0.28 20.14
42.3148 0.28 20.14
42.3516 0.28 20.14
42.3879 0.28 20.01
42.4252 0.28 20.14
42.4623 0.28 20.14
42.4987 0.28 20.14
42.5367 0.28 20.14
42.5732 0.28 20.01
42.6058 0.28 20.14
42.6408 0.28 20.01
42.6775 0.28 20.14
42.7154 0.28 20.14
42.7516 0.28 20.14
42.7901 0.15 20.14
42.8261 0.28 20.14
42.8636 0.41 20.14
42.8984 0.28 20.14
42.9330 0.28 20.14
42.9696 0.28 20.14
43.0069 0.28 20.14
43.0434 0.28 20.14
43.0892 0.28 20.14
43.1236 0.15 20.14
43.1669 0.28 20.14
43.2035 0.28 20.14
43.2366 0.28 20.14
43.2743 0.28 20.14
43.3099 0.28 20.01
43.3461 0.28 20.14
43.3820 0.28 20.14
43.4165 0.28 20.14
43.4541 0.28 20.14
43.4906 0.28 20.14
43.5265 0.28 20.14
43.5609 0.28 20.14
43.5969 0.28 20.14
43.6334 0.15 20.01
43.6707 0.28 20.14
43.7070 0.28 20.14
43.7448 0.28 20.14
43.7795 0.28 20.14
43.8170 0.28 20.27
43.8540 0.28 20.14
43.8909 0.28 20.14
43.9282 0.41 20.14
43.9650 0.28 20.14
44.0026 0.41 20.14
44.0374 0.28 20.14
44.0763 0.28 20.27
44.1160 0.28 20.14
44.1618 0.28 20.14
44.1984 0.41 20.14
44.2351 0.28 20.14
44.2723 0.41 20.14
44.3102 0.28 20.14
44.3452 0.28 20.14
44.3826 0.28 20.14
44.4193 0.28 20.27
44.4563 0.28 20.27
44.4938 0.28 20.01
44.5305 0.28 20.01
44.5673 0.28 20.01
44.6027 0.28 20.01
44.6411 0.28 20.01
44.6787 0.28 20.14
44.7153 0.28 20.14
44.7521 0.28 20.14
44.7901 0.28 20.14
44.8201 0.28 20.14
44.8592 0.28 20.14
44.8985 0.28 20.14
44.9360 0.28 20.14
44.9743 0.15 20.14
45.0060 0.28 20.14
45.0411 0.28 20.27
45.0790 0.28 20.01
45.1172 0.28 20.14
45.1646 0.28 20.14
45.2018 0.28 20.14
45.2388 0.28 20.14
45.2757 0.28 20.14
45.3128 0.28 20.14
45.3496 0.41 20.14
45.3875 0.28 20.14
45.4237 0.28 20.14
45.4587 0.28 20.14
45.4961 0.41 20.14
45.5346 0.28 20.14
45.5714 0.28 20.14
45.6082 0.41 20.14
45.6419 0.28 20.14
45.6753 0.28 20.14
45.7102 0.28 20.14
45.7456 0.28 20.14
45.7836 0.41 20.14
45.8193 0.28 20.14
45.8627 0.28 20.14
45.8989 0.28 20.27
45.9336 0.28 20.01
45.9716 0.28 20.01
46.0106 0.28 20.27
46.0466 0.28 20.14
46.0835 0.28 20.27
46.1184 0.15 20.14
46.1651 0.28 20.14
46.2019 0.28 20.14
46.2368 0.28 20.14
46.2746 0.28 20.14
46.3116 0.41 20.14
46.3499 0.28 20.14
46.3860 0.41 20.14
46.4194 0.28 20.14
46.4550 0.28 20.14
46.4888 0.41 20.14
46.5235 0.41 20.14
46.5620 0.28 20.01
46.5983 0.28 20.14
46.6352 0.28 20.14
46.6727 0.28 20.14
46.7061 0.28 20.14
46.7418 0.28 20.14
46.7788 0.15 20.14
46.8162 0.28 20.01
46.8542 0.28 20.14
46.8883 0.28 20.14
46.9259 0.28 20.14
46.9637 0.28 20.14
46.9997 0.28 20.14
47.0382 0.28 20.14
47.0745 0.28 20.14
47.1099 0.28 20.14
47.1522 0.41 20.14
47.1888 0.28 20.14
47.2270 0.28 20.14
47.2608 0.28 20.14
47.2991 0.28 20.14
47.3366 0.28 20.14
47.3733 0.28 20.14
47.4093 0.28 20.14
47.4454 0.28 20.14
47.4832 0.28 20.27
47.5196 0.28 20.14
47.5574 0.28 20.27
47.5941 0.28 20.14
47.6289 0.28 20.14
47.6644 0.28 20.14
47.7002 0.28 20.14
47.7359 0.28 20.14
47.7738 0.28 20.14
47.8115 0.28 20.14
47.8483 0.28 20.14
47.8829 0.28 20.01
47.9182 0.28 20.14
47.9540 0.28 20.01
47.9926 0.28 20.14
48.0285 0.28 20.14
48.0607 0.28 20.01
48.0994 0.28 20.14
48.1321 0.28 20.14
48.1741 0.41 20.14
48.2134 0.41 20.14
48.2503 0.28 20.14
48.2866 0.41 20.14
48.3222 0.28 20.27
48.3600 0.28 20.14
48.3957 0.28 20.14
48.4330 0.28 20.14
48.4692 0.41 20.14
48.5065 0.41 20.14
48.5435 0.28 20.14
48.5818 0.28 20.14
48.6188 0.28 20.01
48.6544 0.15 20.14
48.6912 0.28 20.14
48.7284 0.15 20.14
48.7658 0.28 20.14
48.8023 0.28 20.14
48.8398 0.28 20.14
48.8769 0.28 20.14
48.9114 0.28 20.14
48.9493 0.28 20.14
48.9820 0.28 20.14
49.0191 0.41 20.01
49.0559 0.28 20.14
49.0951 0.28 20.27
49.1356 0.28 20.14
49.1783 0.28 20.14
49.2143 0.28 20.14
49.2491 0.28 20.14
49.2895 0.28 20.01
49.3284 0.28 20.14
49.3677 0.28 20.14
49.4038 0.28 20.14
49.4402 0.28 20.14
49.4746 0.28 20.14
49.5082 0.28 20.14
49.5424 0.28 20.14
49.5794 0.28 20.14
49.6175 0.41 20.14
49.6541 0.28 20.14
49.6905 0.28 20.14
49.7278 0.41 20.01
49.7634 0.41 20.14
49.8009 0.15 20.14
49.8385 0.41 20.14
49.8763 0.41 20.14
49.9120 0.28 20.14
49.9499 0.28 20.14
49.9863 0.28 20.01
50.0187 0.28 20.01
50.0540 0.41 20.27
50.0932 0.28 20.14
50.1280 0.28 20.14
50.1737 0.28 20.14
50.2119 0.28 20.14
50.2488 0.28 20.14
50.2845 0.28 20.14
50.3214 0.28 20.01
50.3599 0.28 20.14
50.3960 0.28 20.14
50.4287 0.28 20.14
50.4653 0.28 20.14
50.5005 0.28 20.14
50.5385 0.28 20.14
50.5812 0.28 20.14
50.6157 0.28 20.14
50.6540 0.28 20.14
50.6907 0.28 20.14
50.7273 0.41 20.14
50.7646 0.28 20.14
50.8014 0.28 20.14
50.8379 0.28 20.14
50.8735 0.28 20.14
50.9120 0.15 20.14
50.9452 0.28 20.14
50.9799 0.28 20.14
51.0173 0.28 20.14
51.0544 0.28 20.01
51.0917 0.28 20.14
51.1280 0.28 20.14
51.1727 0.28 20.14
51.2100 0.28 20.14
51.2473 0.28 20.14
51.2845 0.28 20.14
51.3213 0.28 20.14
51.3584 0.28 20.14
51.3950 0.15 20.14
51.4327 0.28 20.01
51.4684 0.28 20.14
51.5024 0.28 20.14
51.5389 0.28 20.27
51.5716 0.41 20.14
51.6088 0.28 20.14
51.6440 0.41 20.14
51.6812 0.41 20.14
51.7143 0.28 20.14
51.7500 0.28 20.14
51.7868 0.28 20.14
51.8238 0.28 20.14
51.8580 0.28 20.14
51.8948 0.28 20.14
51.9359 0.41 20.14
51.9728 0.28 20.14
52.0077 0.28 20.14
52.0426 0.28 20.14
52.0783 0.15 20.14
52.1152 0.28 20.14
52.1585 0.28 20.14
52.1943 0.28 20.14
52.2294 0.28 20.14
52.2640 0.28 20.27
52.2988 0.28 20.27
52.3374 0.28 20.14
52.3730 0.15 20.14
52.4116 0.28 20.01
52.4476 0.41 20.01
52.4852 0.28 20.14
52.5216 0.28 20.14
52.5590 0.28 20.14
52.5957 0.41 20.01
52.6320 0.41 20.14
52.6685 0.28 20.14
52.7027 0.28 20.14
52.7403 0.28 20.14
52.7796 0.15 20.14
52.8157 0.28 20.14
52.8531 0.28 20.14
52.8904 0.28 20.14
52.9272 0.41 20.14
52.9671 0.28 20.14
53.0046 0.41 20.14
53.0417 0.28 20.27
53.0785 0.28 20.14
53.1165 0.28 20.14
53.1566 0.28 20.14
53.1921 0.28 20.14
53.2259 0.28 20.14
53.2623 0.28 20.14
53.2995 0.28 20.14
53.3376 0.28 20.14
53.3692 0.28 20.14
53.4060 0.28 20.14
53.4438 0.28 20.14
53.4764 0.28 20.14
53.5083 0.28 20.14
53.5457 0.28 20.14
53.5808 0.28 20.14
53.6183 0.41 20.14
53.6566 0.28 20.14
53.6897 0.28 20.27
53.7250 0.28 20.01
53.7613 0.41 20.14
53.8009 0.41 20.14
53.8394 0.28 20.14
53.8768 0.28 20.14
53.9143 0.28 20.14
53.9514 0.15 20.14
53.9916 0.41 20.14
54.0285 0.41 20.14
54.0653 0.28 20.14
54.1003 0.41 20.14
54.1362 0.28 20.14
54.1802 0.41 20.14
54.2161 0.28 20.14
54.2538 0.28 20.14
54.2867 0.28 20.14
54.3236 0.28 20.14
54.3611 0.28 20.14
54.3980 0.28 20.01
54.4353 0.15 20.14
54.4715 0.28 20.14
54.5076 0.28 20.14
54.5447 0.41 20.27
54.5818 0.28 20.14
54.6146 0.28 20.14
54.6531 0.28 20.14
54.6860 0.28 20.14
54.7257 0.28 20.14
54.7570 0.41 20.14
54.7941 0.28 20.14
54.8298 0.28 20.14
time[sec] Pin[KPa] Pout[KPa]
06 24 19 16:10:59
0.0965 0.28 0.54
0.1873 0.80 0.41
0.2312 1.96 0.54
0.2722 2.73 0.41
0.3103 3.64 0.41
0.3534 4.54 0.41
0.3922 5.31 0.41
0.4294 6.09 0.41
0.4676 6.86 0.54
0.5055 7.63 0.54
0.5442 8.41 0.54
0.5793 9.05 0.41
0.6171 9.83 0.41
0.6543 10.47 0.41
0.6952 11.12 0.41
0.7326 12.02 0.41
0.7689 12.54 0.54
0.8052 13.18 0.54
0.8435 13.82 0.41
0.8792 14.34 0.67
0.9152 14.86 0.54
0.9533 15.63 0.54
0.9891 16.02 0.54
1.0261 16.79 0.54
1.0622 17.18 0.54
1.0994 17.69 0.54
1.1373 18.34 0.54
1.1808 18.85 0.54
1.2187 19.37 0.41
1.2566 19.89 0.54
1.2982 20.40 0.67
1.3342 20.92 0.41
1.3726 21.43 0.28
1.4130 21.69 0.54
1.4540 22.34 0.54
1.4906 22.72 0.41
1.5252 23.11 0.54
1.5627 23.50 0.54
1.6010 23.88 0.54
1.6375 24.27 0.41
1.6725 24.66 0.54
1.7103 24.92 0.28
1.7481 25.30 0.41
1.7853 25.56 0.41
1.8217 25.95 0.54
1.8621 26.20 0.54
1.8983 26.59 0.54
1.9371 26.85 0.54
1.9740 27.11 0.54
2.0083 27.24 0.54
2.0485 27.62 0.41
2.0876 27.88 0.54
2.1259 28.14 0.54
2.1877 28.66 0.41
2.2280 28.78 0.41
2.2661 29.04 0.54
2.3058 29.30 0.54
2.3406 29.43 0.41
2.3792 29.69 0.41
2.4144 29.82 0.54
2.4558 29.94 0.54
2.4997 30.20 0.41
2.5387 30.33 0.41
2.5795 30.46 0.41
2.6176 30.59 0.41
2.6523 30.72 0.54
2.6907 30.85 0.54
2.7270 30.98 0.54
2.7654 31.11 0.54
2.8030 31.23 0.54
2.8404 31.36 0.54
2.8780 31.36 0.41
2.9152 31.49 0.67
2.9514 31.75 0.54
2.9890 31.75 0.67
3.0259 31.88 0.54
3.0616 31.75 0.54
3.0976 32.01 0.41
3.1391 32.01 0.41
3.1801 32.14 0.54
3.2179 32.14 0.54
3.2541 32.27 0.41
3.2917 32.27 0.41
3.3304 32.27 0.67
3.3699 32.39 0.54
3.4075 32.52 0.41
3.4430 32.52 0.54
3.4801 32.65 0.54
3.5187 32.65 0.54
3.5531 32.65 0.54
3.5903 32.78 0.54
3.6333 32.78 0.54
3.6689 32.78 0.54
3.7044 32.91 0.54
3.7421 32.65 0.54
3.7792 32.91 0.41
3.8173 32.91 0.41
3.8503 33.04 0.54
3.8847 33.04 0.54
3.9248 33.04 0.41
3.9597 32.91 0.41
3.9966 33.04 0.41
4.0336 33.04 0.41
4.0714 33.04 0.41
4.1058 33.17 0.41
4.1481 33.04 0.41
4.1882 33.04 0.41
4.2255 33.30 0.54
4.2629 33.17 0.54
4.2999 33.17 0.41
4.3367 33.30 0.54
4.3769 33.17 0.41
4.4150 33.30 0.41
4.4504 33.17 0.41
4.4883 33.30 0.41
4.5290 33.30 0.41
4.5660 33.30 0.28
4.6034 33.30 0.41
4.6402 33.30 0.41
4.6770 33.30 0.41
4.7135 33.43 0.54
4.7538 33.30 0.41
4.7910 33.30 0.54
4.8285 33.30 0.54
4.8628 33.30 0.54
4.8981 33.30 0.54
4.9360 33.43 0.41
4.9774 33.43 0.41
5.0168 33.30 0.41
5.0547 33.30 0.41
5.0887 33.30 0.41
5.1235 33.43 0.41
5.1673 33.43 0.41
5.2041 33.43 0.54
5.2410 33.43 0.41
5.2782 33.43 0.67
5.3155 33.43 0.54
5.3530 33.43 0.41
5.3868 33.56 0.54
5.4216 33.43 0.41
5.4592 33.43 0.54
5.4944 33.56 0.54
5.5317 33.43 0.54
5.5682 33.43 0.54
5.6045 33.43 0.54
5.6432 33.56 0.54
5.6797 33.43 0.54
5.7185 33.43 0.41
5.7581 33.43 0.41
5.7947 33.43 0.41
5.8310 33.43 0.41
5.8683 33.56 0.54
5.9053 33.56 0.41
5.9430 33.56 0.41
5.9785 33.43 0.54
6.0151 33.43 0.54
6.0520 33.43 0.41
6.0890 33.56 0.54
6.1260 33.43 0.41
6.1703 33.56 0.54
6.2079 33.43 0.67
6.2444 33.43 0.54
6.2822 33.56 0.54
6.3207 33.56 0.41
6.3600 33.56 0.54
6.4009 33.56 0.54
6.4363 33.56 0.41
6.4743 33.56 0.54
6.5114 33.56 0.54
6.5493 33.43 0.54
6.5841 33.56 0.54
6.6256 33.43 0.54
6.6592 33.56 0.54
6.6954 33.56 0.54
6.7365 33.56 0.41
6.7738 33.56 0.54
6.8104 33.68 0.54
6.8472 33.56 0.41
6.8828 33.56 0.41
6.9177 33.56 0.41
6.9500 33.56 0.41
6.9862 33.56 0.54
7.0255 33.56 0.54
7.0608 33.56 0.54
7.0930 33.56 0.67
7.1312 33.56 0.28
7.1737 33.56 0.54
7.2117 33.56 0.54
7.2477 33.43 0.54
7.2838 33.56 0.54
7.3215 33.43 0.54
7.3571 33.43 0.54
7.3901 33.43 0.54
7.4248 33.56 0.54
7.4598 33.56 0.54
7.4949 33.56 0.41
7.5321 33.56 0.41
7.5669 33.56 0.54
7.6039 33.68 0.41
7.6424 33.56 0.54
7.6763 33.56 0.41
7.7130 33.56 0.41
7.7461 33.56 0.41
7.7792 33.56 0.54
7.8133 33.56 0.54
7.8505 33.56 0.54
7.8887 33.56 0.54
7.9238 33.68 0.54
7.9619 33.56 0.54
7.9965 33.56 0.54
8.0358 33.56 0.54
8.0711 33.68 0.54
8.1108 33.56 0.41
8.1558 33.56 0.67
8.1950 33.68 0.54
8.2321 33.56 0.54
8.2688 33.56 0.41
8.3040 33.56 0.54
8.3424 33.56 0.54
8.3772 33.56 0.54
8.4122 33.56 0.54
8.4490 33.68 0.41
8.4840 33.56 0.41
8.5240 33.56 0.54
8.5556 33.68 0.54
8.5883 33.56 0.28
8.6265 33.68 0.41
8.6611 33.68 0.41
8.6985 33.56 0.41
8.7356 33.56 0.54
8.7728 33.56 0.54
8.8087 33.56 0.41
8.8468 33.56 0.54
8.8814 33.56 0.54
8.9200 33.56 0.54
8.9557 33.68 0.54
8.9939 33.56 0.54
9.0281 33.56 0.41
9.0638 33.56 0.41
9.0998 33.68 0.41
9.1377 33.56 0.41
9.1820 33.68 0.54
9.2181 33.68 0.41
9.2561 33.68 0.54
9.2929 33.68 0.54
9.3261 33.56 0.54
9.3625 33.81 0.54
9.3944 33.68 0.54
9.4323 33.68 0.54
9.4703 33.68 0.54
9.5052 33.68 0.54
9.5379 33.56 0.54
9.5758 33.68 0.54
9.6086 33.68 0.54
9.6449 33.68 0.54
9.6812 33.68 0.54
9.7140 33.68 0.54
9.7506 33.68 0.54
9.7883 33.68 0.41
9.8245 33.68 0.41
9.8651 33.81 0.54
9.9022 33.68 0.54
9.9402 33.68 0.41
9.9752 33.68 0.41
10.0112 33.68 0.54
10.0439 33.81 0.54
10.0765 33.68 0.54
10.1102 33.68 0.54
10.1519 33.68 0.54
10.1887 33.68 0.54
10.2260 33.81 0.54
10.2613 33.68 0.54
10.2958 33.68 0.54
10.3331 33.81 0.41
10.3704 33.68 0.54
10.4057 33.68 0.41
10.4424 33.81 0.41
10.4766 33.68 0.54
10.5117 33.68 0.54
10.5498 33.68 0.54
10.5863 33.81 0.54
10.6233 33.68 0.54
10.6607 33.81 0.67
10.6969 33.68 0.54
10.7325 33.68 0.54
10.7702 33.68 0.54
10.8066 33.68 0.54
10.8436 33.81 0.54
10.8782 33.81 0.54
10.9140 33.68 0.54
10.9510 33.68 0.41
10.9882 33.81 0.41
11.0251 33.68 0.41
11.0579 33.68 0.41
11.0934 33.68 0.54
11.1322 33.68 0.54
11.1766 33.68 0.41
11.2127 33.68 0.54
11.2490 33.81 0.41
11.2884 33.81 0.54
11.3237 33.68 0.41
11.3648 33.81 0.41
11.4002 33.68 0.54
11.4374 33.81 0.54
11.4751 33.68 0.54
11.5122 33.68 0.54
11.5487 33.68 0.54
11.5854 33.81 0.41
11.6195 33.81 0.54
11.6527 33.81 0.41
11.6878 33.81 0.54
11.7245 33.81 0.41
11.7612 33.81 0.54
11.7986 33.81 0.54
11.8339 33.81 0.54
11.8726 33.68 0.41
11.9085 33.81 0.54
11.9475 33.81 0.54
11.9831 33.81 0.41
12.0208 33.81 0.54
12.0552 33.81 0.54
12.0901 33.68 0.54
12.1270 33.68 0.54
12.1664 33.81 0.54
12.2006 33.81 0.54
12.2332 33.81 0.54
12.2705 33.81 0.54
12.3076 33.81 0.54
12.3428 33.81 0.54
12.3800 33.81 0.41
12.4191 33.81 0.54
12.4548 33.81 0.67
12.4900 33.94 0.54
12.5282 33.68 0.54
12.5677 33.68 0.54
12.6050 33.81 0.54
12.6422 33.68 0.54
12.6844 33.81 0.54
12.7194 33.81 0.54
12.7561 33.81 0.54
12.7926 33.68 0.54
12.8298 33.81 0.54
12.8680 33.81 0.54
12.9047 33.81 0.54
12.9474 33.81 0.54
12.9866 33.81 0.54
13.0233 33.81 0.54
13.0595 33.81 0.54
13.0971 33.81 0.54
13.1356 33.81 0.54
13.1793 33.81 0.41
13.2172 33.81 0.41
13.2549 33.81 0.41
13.2886 33.81 0.54
13.3255 33.68 0.54
13.3618 33.94 0.54
13.4047 33.81 0.54
13.4419 33.94 0.54
13.4760 33.81 0.54
13.5119 33.81 0.54
13.5525 33.81 0.54
13.5895 33.94 0.54
13.6216 33.81 0.54
13.6584 33.81 0.54
13.6967 33.81 0.54
13.7300 33.81 0.41
13.7709 33.94 0.54
13.8021 33.81 0.54
13.8385 33.81 0.54
13.8750 33.81 0.54
13.9119 33.81 0.54
13.9499 33.81 0.54
13.9864 33.94 0.41
14.0233 33.81 0.54
14.0595 33.81 0.54
14.0973 33.81 0.54
14.1343 33.81 0.54
14.1784 33.81 0.41
14.2174 33.81 0.54
14.2561 33.81 0.41
14.2934 33.81 0.54
14.3306 33.81 0.54
14.3631 33.81 0.54
14.3988 33.81 0.41
14.4331 33.81 0.54
14.4713 33.94 0.54
14.5154 33.94 0.54
14.5467 33.81 0.54
14.5826 33.81 0.54
14.6227 33.81 0.54
14.6579 33.81 0.54
14.6910 33.81 0.54
14.7294 33.81 0.54
14.7644 33.81 0.54
14.7994 33.94 0.41
14.8372 33.81 0.54
14.8732 33.94 0.54
14.9080 33.81 0.41
14.9445 33.81 0.54
14.9811 33.81 0.67
15.0173 33.81 0.54
15.0558 33.81 0.54
15.0912 33.81 0.54
15.1265 33.94 0.54
15.1695 33.94 0.54
15.2061 33.81 0.54
15.2428 33.81 0.54
15.2798 33.81 0.54
15.3160 33.81 0.54
15.3546 33.81 0.41
15.3897 33.81 0.41
15.4261 33.81 0.67
15.4627 33.81 0.41
15.4959 33.81 0.54
15.5334 33.81 0.54
15.5707 33.81 0.54
15.6079 33.81 0.41
15.6452 33.81 0.54
15.6824 33.81 0.54
15.7136 33.81 0.54
15.7498 33.94 0.54
15.7876 33.81 0.54
15.8239 33.81 0.54
15.8618 33.81 0.54
15.8967 33.81 0.54
15.9303 33.81 0.54
15.9675 33.94 0.54
16.0018 33.81 0.54
16.0499 33.81 0.41
16.0869 33.94 0.41
16.1241 33.81 0.41
16.1687 33.81 0.54
16.2059 33.81 0.54
16.2417 33.81 0.54
16.2777 33.81 0.41
16.3103 33.81 0.41
16.3454 33.81 0.54
16.3804 33.81 0.54
16.4185 33.81 0.41
16.4555 33.81 0.54
16.4934 33.94 0.54
16.5296 33.81 0.41
16.5663 33.81 0.54
16.6039 33.81 0.41
16.6439 33.81 0.41
16.6819 33.81 0.54
16.7144 33.81 0.54
16.7503 34.07 0.54
16.7878 33.81 0.54
16.8246 33.81 0.54
16.8609 33.81 0.41
16.8959 33.94 0.54
16.9312 33.94 0.41
16.9639 33.81 0.54
16.9987 33.94 0.54
17.0331 33.94 0.41
17.0705 33.94 0.54
17.1071 33.81 0.54
17.1521 33.94 0.54
17.1871 33.81 0.54
17.2224 33.81 0.54
17.2550 33.81 0.54
17.2917 33.81 0.54
17.3284 33.94 0.41
17.3629 33.94 0.41
17.3985 33.81 0.41
17.4309 33.81 0.41
17.4663 33.81 0.54
17.5052 33.81 0.54
17.5407 33.94 0.54
17.5772 33.94 0.41
17.6158 33.94 0.54
17.6515 33.81 0.54
17.6897 33.94 0.41
17.7260 33.94 0.54
17.7613 33.94 0.54
17.7955 33.81 0.41
17.8335 33.81 0.54
17.8657 33.81 0.54
17.9004 33.81 0.54
17.9370 33.81 0.41
17.9744 33.81 0.54
18.0116 33.81 0.54
18.0498 33.81 0.54
18.0822 33.81 0.54
18.1200 33.81 0.54
18.1628 33.81 0.54
18.1999 33.94 0.54
18.2376 33.94 0.54
18.2702 33.81 0.54
18.3074 33.94 0.41
18.3437 33.94 0.41
18.3795 33.94 0.54
18.4169 33.81 0.54
18.4543 33.81 0.67
18.4916 33.94 0.54
18.5276 33.81 0.54
18.5658 33.81 0.41
18.6001 33.81 0.41
18.6352 33.81 0.67
18.6712 33.81 0.54
18.7081 33.94 0.54
18.7456 33.94 0.67
18.7828 33.81 0.54
18.8189 33.81 0.54
18.8558 33.94 0.54
18.8962 33.81 0.54
18.9333 33.94 0.54
18.9712 33.94 0.54
19.0062 33.94 0.54
19.0411 33.94 0.54
19.0787 33.94 0.54
19.1158 33.81 0.41
19.1630 33.94 0.54
19.1988 33.81 0.54
19.2364 33.81 0.41
19.2779 33.81 0.54
19.3138 33.81 0.54
19.3511 33.81 0.54
19.3892 33.81 0.54
19.4237 33.81 0.54
19.4583 33.81 0.67
19.4930 33.81 0.54
19.5280 33.94 0.54
19.5657 33.94 0.54
19.5972 33.94 0.54
19.6358 33.94 0.54
19.6698 33.81 0.54
19.7087 33.94 0.54
19.7479 33.81 0.54
19.7820 33.94 0.41
19.8194 33.94 0.54
19.8579 33.81 0.54
19.8963 33.94 0.54
19.9327 33.81 0.54
19.9703 33.81 0.54
20.0053 33.81 0.54
20.0450 33.94 0.54
20.0800 33.81 0.54
20.1173 33.81 0.41
20.1590 33.81 0.54
20.1947 33.81 0.54
20.2318 33.94 0.54
20.2679 33.81 0.54
20.3046 33.81 0.54
20.3425 33.81 0.67
20.3789 33.81 0.54
20.4159 33.81 0.54
20.4530 33.81 0.41
20.4904 33.81 0.54
20.5276 33.94 0.54
20.5625 33.81 0.54
20.5967 33.81 0.54
20.6344 33.94 0.54
20.6688 33.81 0.54
20.7066 33.81 0.54
20.7453 33.81 0.54
20.7806 33.94 0.54
20.8184 33.94 0.54
20.8552 33.81 0.54
20.8907 33.81 0.54
20.9279 33.81 0.54
20.9659 33.81 0.54
21.0021 33.68 0.54
21.0379 33.94 0.54
21.0796 33.81 0.54
21.1167 33.94 0.54
21.1591 33.81 0.54
21.2031 33.81 0.54
21.2388 33.81 0.54
21.2753 33.81 0.41
21.3119 33.81 0.54
21.3496 33.81 0.54
21.3876 33.81 0.54
21.4234 33.81 0.54
21.4599 33.94 0.54
21.4972 33.81 0.54
21.5342 33.94 0.67
21.5704 33.81 0.41
21.6071 33.81 0.41
21.6417 33.81 0.54
21.6746 33.81 0.41
21.7106 33.81 0.54
21.7483 33.94 0.54
21.7881 33.94 0.54
21.8252 33.94 0.41
21.8621 33.94 0.54
21.8994 33.81 0.54
21.9344 33.81 0.54
21.9711 33.94 0.54
22.0135 33.94 0.54
22.0497 33.81 0.41
22.0865 33.81 0.54
22.1242 33.81 0.67
22.1697 33.81 0.54
22.2064 33.81 0.41
22.2415 33.94 0.54
22.2760 33.94 0.54
22.3126 33.94 0.41
22.3481 33.94 0.41
22.3854 33.81 0.54
22.4214 33.81 0.54
22.4592 33.81 0.41
22.4976 33.81 0.54
22.5344 33.56 0.41
22.5747 33.81 0.67
22.6116 33.94 0.54
22.6498 33.94 0.54
22.6846 33.94 0.54
22.7222 33.81 0.67
22.7580 33.94 0.54
22.7964 33.94 0.54
22.8344 33.81 0.54
22.8696 33.94 0.54
22.9061 33.94 0.41
22.9440 33.81 0.54
22.9799 33.94 0.54
23.0136 33.81 0.54
23.0493 33.81 0.54
23.0856 33.81 0.54
23.1236 33.81 0.67
23.1672 33.94 0.54
23.2065 33.81 0.54
23.2382 33.81 0.54
23.2741 33.81 0.54
23.3100 33.81 0.54
23.3460 33.81 0.54
23.3859 33.81 0.54
23.4227 33.81 0.54
23.4601 33.81 0.41
23.4961 33.81 0.54
23.5338 33.94 0.54
23.5709 33.94 0.54
23.6070 33.81 0.54
23.6441 33.81 0.41
23.6793 33.81 0.54
23.7168 33.81 0.54
23.7506 33.81 0.54
23.7881 33.81 0.54
23.8248 33.81 0.54
23.8610 33.94 0.54
23.8963 33.81 0.54
23.9389 33.81 0.54
23.9741 33.81 0.54
24.0091 33.81 0.54
24.0442 33.81 0.54
24.0826 33.81 0.54
24.1198 33.81 0.54
24.1637 33.81 0.54
24.1992 33.94 0.54
24.2378 33.81 0.54
24.2748 33.81 0.54
24.3095 33.81 0.54
24.3431 33.81 0.54
24.3800 33.81 0.54
24.4168 33.81 0.41
24.4539 33.81 0.54
24.4923 33.81 0.54
24.5265 33.81 0.54
24.5602 33.81 0.54
24.5988 33.81 0.54
24.6348 33.94 0.54
24.6710 33.81 0.54
24.7086 33.81 0.54
24.7458 33.81 0.41
24.7809 33.81 0.41
24.8184 33.81 0.54
24.8562 33.81 0.41
24.8946 33.94 0.54
24.9280 33.81 0.54
24.9607 33.81 0.54
24.9970 33.94 0.41
25.0327 33.81 0.54
25.0696 33.81 0.54
25.1058 33.81 0.54
25.1473 33.81 0.41
25.1850 33.94 0.54
25.2194 33.81 0.54
25.2570 33.81 0.54
25.2946 33.81 0.54
25.3312 33.94 0.54
25.3683 33.94 0.54
25.4063 33.81 0.54
25.4454 33.81 0.54
25.4826 33.81 0.67
25.5200 33.81 0.54
25.5550 33.81 0.41
25.5901 33.94 0.41
25.6242 33.94 0.54
25.6577 33.81 0.54
25.6948 33.81 0.54
25.7330 33.81 0.54
25.7701 33.81 0.54
25.8048 33.81 0.67
25.8425 33.81 0.54
25.8787 33.81 0.54
25.9163 33.68 0.54
25.9533 33.81 0.41
25.9911 33.81 0.54
26.0275 33.81 0.54
26.0651 33.81 0.28
26.1017 33.81 0.41
26.1404 33.94 0.41
26.1841 33.81 0.54
26.2159 33.81 0.54
26.2529 34.07 0.54
26.2893 33.81 0.54
26.3261 33.94 0.54
26.3640 33.81 0.41
26.4002 33.81 0.41
26.4370 33.94 0.54
26.4719 33.94 0.54
26.5053 33.81 0.67
26.5428 33.81 0.54
26.5768 33.94 0.41
26.6138 33.94 0.54
26.6543 33.94 0.41
26.6921 33.81 0.54
26.7239 33.94 0.41
26.7608 33.94 0.54
26.7979 33.94 0.54
26.8345 33.94 0.54
26.8704 33.81 0.54
26.9077 33.81 -0.10
26.9453 34.07 0.41
26.9829 33.94 0.67
27.0168 33.81 0.41
27.0501 33.94 0.54
27.0868 33.94 0.54
27.1215 33.81 0.54
27.1655 33.94 0.41
27.2028 33.94 0.54
27.2404 33.81 0.41
27.2735 33.94 0.54
27.3103 33.94 0.54
27.3432 33.94 0.41
27.3777 33.94 0.54
27.4165 33.94 0.54
27.4532 33.94 0.54
27.4862 33.94 0.41
27.5227 33.81 0.54
27.5603 33.81 0.54
27.5977 33.94 0.54
27.6361 33.81 0.54
27.6734 33.94 0.67
27.7110 33.94 0.41
27.7463 33.94 0.54
27.7853 33.94 0.41
27.8203 33.94 0.41
27.8568 33.94 0.54
27.8914 33.94 0.54
27.9244 33.81 0.54
27.9654 33.81 0.54
28.0022 33.94 0.54
28.0389 33.94 0.54
28.0753 33.94 0.41
28.1118 34.07 0.54
28.1544 33.94 0.54
28.1934 33.94 0.41
28.2314 33.94 0.54
28.2685 33.81 0.67
28.3000 33.94 0.54
28.3375 33.94 0.54
28.3763 33.94 0.54
28.4077 33.94 0.54
28.4438 33.94 0.54
28.4811 33.94 0.54
28.5232 33.94 0.67
28.5585 33.94 0.54
28.5959 33.94 0.54
28.6328 33.94 0.54
28.6655 33.81 0.54
28.7006 33.94 0.54
28.7398 33.94 0.54
28.7769 33.94 0.54
28.8118 33.94 0.54
28.8484 33.94 0.54
28.8866 33.94 0.67
28.9236 33.94 0.54
28.9565 33.94 0.54
28.9930 33.94 0.54
29.0314 33.94 0.54
29.0650 33.94 0.54
29.1031 33.94 0.54
29.1398 33.94 0.54
29.1809 33.94 0.54
29.2173 33.94 0.67
29.2570 33.94 0.54
29.2926 33.94 0.67
29.3301 33.94 0.54
29.3639 33.94 0.54
29.4013 33.94 0.54
29.4400 33.94 0.67
29.4759 33.81 0.54
29.5117 33.94 0.54
29.5461 33.94 0.54
29.5841 33.94 0.54
29.6201 33.94 0.54
29.6547 33.94 0.54
29.6923 34.07 0.67
29.7302 34.07 0.54
29.7677 33.94 0.54
29.8024 34.07 0.41
29.8402 33.94 0.54
29.8781 33.94 0.54
29.9144 33.94 0.54
29.9500 33.94 0.54
29.9844 33.94 0.54
30.0171 33.94 0.54
30.0539 33.94 0.54
30.0921 33.04 0.67
30.1278 32.14 0.54
30.1675 31.23 0.54
30.2016 30.33 0.54
30.2418 29.69 0.41
30.2818 28.66 0.54
30.3217 27.88 0.54
30.3561 27.11 0.54
30.3933 26.33 0.54
30.4309 25.56 0.54
30.4658 24.92 0.41
30.5050 24.14 0.54
30.5409 23.50 0.54
30.5782 22.85 0.54
30.6154 22.21 0.54
30.6521 21.56 0.67
30.6888 20.92 0.54
30.7252 20.27 0.54
30.7584 19.89 0.67
30.7958 19.24 0.54
30.8327 18.73 0.67
30.8693 18.34 0.67
30.9068 17.95 0.54
30.9404 17.31 0.67
30.9740 16.92 0.67
31.0143 16.53 0.80
31.0530 15.89 0.80
31.0888 15.37 0.80
31.1289 14.99 0.80
31.1753 14.34 1.06
31.2111 13.95 1.06
31.2459 13.57 1.19
31.2821 13.05 1.32
31.3203 12.79 1.44
31.3593 12.28 1.44
31.3971 11.76 1.70
31.4338 11.37 1.83
31.4722 11.12 1.96
31.5037 10.73 2.22
31.5389 10.34 2.48
31.5741 10.08 3.38
31.6113 10.21 9.44
31.6472 9.96 9.57
31.6844 9.70 9.57
31.7208 9.31 9.57
31.7575 9.05 9.70
31.7931 8.67 9.70
31.8332 8.41 9.70
31.8687 8.15 9.83
31.9010 7.76 9.83
31.9367 7.63 9.96
31.9707 7.25 9.96
32.0077 7.12 9.96
32.0429 6.86 9.83
32.0801 6.47 10.08
32.1159 6.47 10.08
32.1576 6.09 10.08
32.1958 5.83 10.21
32.2326 5.70 10.21
32.2693 5.44 10.21
32.3060 5.18 10.21
32.3435 5.06 10.34
32.3785 4.80 10.34
32.4157 4.67 10.47
32.4533 4.41 10.47
32.4893 4.41 10.47
32.5281 4.15 10.60
32.5657 4.02 10.60
32.6026 3.89 10.60
32.6384 3.64 10.73
32.6743 3.51 10.73
32.7080 3.38 10.73
32.7453 3.25 10.86
32.7815 3.12 10.86
32.8172 2.99 10.99
32.8562 2.99 10.99
32.8921 2.86 11.12
32.9290 2.73 11.12
32.9653 2.61 11.25
33.0049 2.48 11.25
33.0432 2.48 11.25
33.0789 2.22 11.37
33.1156 2.22 11.50
33.1603 2.09 11.50
33.1981 1.83 11.50
33.2353 1.96 11.63
33.2720 1.83 11.63
33.3086 1.96 11.76
33.3462 1.70 12.02
33.3843 1.70 11.89
33.4207 1.57 12.02
33.4562 1.57 12.15
33.4946 1.44 12.28
33.5312 1.44 12.28
33.5679 1.32 12.41
33.6057 1.44 12.41
33.6408 1.32 12.41
33.6771 1.32 12.54
33.7150 1.19 12.54
33.7511 1.19 12.66
33.7847 1.19 12.79
33.8218 1.06 12.79
33.8596 1.06 12.92
33.8941 1.06 12.92
33.9321 1.06 12.92
33.9688 1.06 13.05
34.0065 0.93 13.18
34.0391 0.80 13.31
34.0758 0.80 13.18
34.1127 0.80 13.31
34.1547 0.80 13.57
34.1945 0.80 13.44
34.2316 0.80 13.57
34.2689 0.80 13.57
34.3013 0.67 13.70
34.3369 0.80 13.70
34.3730 0.67 13.82
34.4074 0.67 13.82
34.4433 0.80 13.95
34.4809 0.67 14.08
34.5165 0.67 13.95
34.5529 0.67 14.08
34.5883 0.67 14.21
34.6243 0.54 14.21
34.6611 0.67 14.21
34.6978 0.54 14.34
34.7350 0.54 14.47
34.7720 0.54 14.47
34.8073 0.54 14.47
34.8420 0.54 14.60
34.8786 0.54 14.60
34.9156 0.54 14.73
34.9482 0.54 14.86
34.9852 0.54 14.73
35.0228 0.54 14.99
35.0543 0.41 14.99
35.0924 0.54 14.99
35.1286 0.54 15.11
35.1698 0.41 15.11
35.2063 0.41 15.11
35.2440 0.41 15.24
35.2787 0.41 15.24
35.3170 0.41 15.37
35.3528 0.41 15.37
35.3905 0.41 15.50
35.4278 0.41 15.50
35.4644 0.41 15.63
35.5004 0.41 15.76
35.5379 0.41 15.76
35.5749 0.41 15.76
35.6118 0.41 15.89
35.6482 0.41 16.02
35.6852 0.41 15.89
35.7219 0.41 16.02
35.7552 0.41 16.02
35.7907 0.41 16.15
35.8283 0.41 16.15
35.8670 0.28 16.15
35.9067 0.28 16.27
35.9430 0.41 16.27
35.9803 0.41 16.27
36.0165 0.41 16.53
36.0525 0.41 16.53
36.0892 0.41 16.53
36.1275 0.41 16.66
36.1715 0.41 16.53
36.2098 0.41 16.79
36.2465 0.41 16.66
36.2835 0.41 16.79
36.3190 0.41 16.79
36.3603 0.28 16.92
36.3988 0.28 16.92
36.4325 0.41 16.92
36.4660 0.28 16.92
36.5004 0.28 17.05
36.5376 0.41 17.05
36.5748 0.28 17.18
36.6093 0.28 17.18
36.6427 0.41 17.18
36.6799 0.41 17.18
36.7161 0.41 17.31
36.7549 0.41 17.31
36.7905 0.28 17.44
36.8276 0.28 17.44
36.8654 0.28 17.44
36.9007 0.28 17.44
36.9381 0.28 17.56
36.9752 0.28 17.69
37.0130 0.41 17.56
37.0473 0.28 17.69
37.0815 0.28 17.82
37.1183 0.41 17.69
37.1702 0.28 17.82
37.2035 0.28 17.95
37.2410 0.28 17.82
37.2785 0.28 17.95
37.3155 0.28 17.82
37.3528 0.28 17.95
37.3892 0.28 18.08
37.4270 0.28 18.08
37.4626 0.41 17.95
37.4982 0.41 18.21
37.5364 0.28 18.21
37.5730 0.41 18.21
37.6101 0.41 18.21
37.6469 0.28 18.21
37.6843 0.28 18.21
37.7213 0.28 18.21
37.7581 0.28 18.34
37.7944 0.41 18.34
37.8323 0.41 18.47
37.8671 0.28 18.34
37.9048 0.41 18.47
37.9419 0.41 18.47
37.9779 0.28 18.47
38.0162 0.28 18.47
38.0526 0.41 18.47
38.0899 0.28 18.60
38.1265 0.28 18.60
38.1720 0.28 18.73
38.2094 0.28 18.73
38.2447 0.28 18.73
38.2824 0.28 18.73
38.3186 0.28 18.73
38.3559 0.28 18.85
38.3929 0.28 18.73
38.4288 0.28 18.85
38.4653 0.41 18.85
38.5030 0.28 18.85
38.5403 0.28 18.85
38.5789 0.28 18.85
38.6150 0.28 18.98
38.6493 0.28 18.98
38.6868 0.28 18.98
38.7238 0.28 18.98
38.7622 0.28 18.98
38.7989 0.28 18.98
38.8354 0.28 18.98
38.8733 0.28 19.11
38.9093 0.28 19.11
38.9456 0.41 19.11
38.9813 0.28 19.11
39.0202 0.28 19.11
39.0544 0.28 19.24
39.0896 0.28 19.11
39.1246 0.28 19.24
39.1700 0.41 19.24
39.2081 0.28 19.11
39.2447 0.28 19.24
39.2817 0.28 19.24
39.3186 0.41 19.24
39.3559 0.41 19.24
39.3887 0.41 19.37
39.4255 0.41 19.24
39.4585 0.41 19.37
39.4932 0.28 19.24
39.5301 0.28 19.24
39.5679 0.28 19.24
39.6053 0.28 19.37
39.6427 0.28 19.37
39.6783 0.28 19.37
39.7148 0.28 19.37
39.7524 0.28 19.37
39.7905 0.28 19.37
39.8315 0.28 19.37
39.8674 0.28 19.37
39.9000 0.28 19.37
39.9349 0.28 19.37
39.9758 0.28 19.37
40.0094 0.28 19.50
40.0459 0.41 19.50
40.0804 0.28 19.50
40.1164 0.28 19.50
40.1576 0.28 19.37
40.1958 0.28 19.50
40.2313 0.28 19.50
40.2687 0.41 19.50
40.3054 0.28 19.50
40.3426 0.28 19.50
40.3790 0.41 19.37
40.4139 0.28 19.50
40.4498 0.28 19.50
40.4812 0.15 19.50
40.5186 0.28 19.50
40.5546 0.41 19.50
40.5917 0.28 19.50
40.6347 0.28 19.50
40.6698 0.15 19.50
40.7072 0.28 19.50
40.7427 0.28 19.50
40.7804 0.41 19.50
40.8182 0.41 19.50
40.8505 0.41 19.50
40.8875 0.28 19.50
40.9227 0.28 19.63
40.9594 0.28 19.50
40.9956 0.28 19.50
41.0311 0.28 19.50
41.0649 0.28 19.50
41.1038 0.28 19.50
41.1457 0.28 19.50
41.1856 0.28 19.63
41.2285 0.28 19.63
41.2596 0.41 19.63
41.2961 0.28 19.63
41.3336 0.28 19.63
41.3714 0.28 19.63
41.4076 0.28 19.63
41.4439 0.41 19.50
41.4772 0.41 19.50
41.5120 0.28 19.63
41.5491 0.28 19.76
41.5873 0.41 19.63
41.6223 0.28 19.63
41.6611 0.28 19.63
41.6973 0.28 19.63
41.7354 0.28 19.63
41.7712 0.28 19.63
41.8076 0.28 19.63
41.8444 0.28 19.63
41.8813 0.28 19.63
41.9196 0.28 19.63
41.9554 0.41 19.76
41.9945 0.28 19.63
42.0302 0.28 19.63
42.0669 0.28 19.76
42.1035 0.28 19.63
42.1450 0.28 19.63
42.1820 0.28 19.50
42.2181 0.28 19.63
42.2551 0.28 19.63
42.2899 0.28 19.63
42.3225 0.28 19.63
42.3582 0.28 19.63
42.3925 0.28 19.63
42.4329 0.28 19.63
42.4684 0.28 19.76
42.5052 0.28 19.63
42.5404 0.28 19.63
42.5792 0.28 19.63
42.6154 0.28 19.63
42.6518 0.28 19.63
42.6882 0.15 19.63
42.7263 0.15 19.63
42.7625 0.28 19.63
42.8008 0.41 19.63
42.8368 0.28 19.63
42.8722 0.28 19.63
42.9098 0.28 19.63
42.9471 0.28 19.63
42.9840 0.41 19.63
43.0214 0.28 19.76
43.0589 0.41 19.76
43.0935 0.28 19.63
43.1283 0.28 19.63
43.1690 0.41 19.76
43.2042 0.41 19.76
43.2412 0.28 19.63
43.2785 0.28 19.63
43.3160 0.28 19.63
43.3531 0.28 19.63
43.3854 0.28 19.63
43.4234 0.28 19.63
43.4596 0.28 19.63
43.4916 0.28 19.63
43.5268 0.41 19.63
43.5602 0.28 19.63
43.5949 0.28 19.63
43.6299 0.28 19.63
43.6640 0.28 19.63
43.6991 0.28 19.63
43.7345 0.28 19.63
43.7673 0.28 19.76
43.8034 0.28 19.63
43.8400 0.28 19.76
43.8764 0.28 19.76
43.9145 0.41 19.76
43.9511 0.41 19.63
43.9872 0.28 19.50
44.0243 0.28 19.63
44.0619 0.15 19.63
44.0990 0.28 19.63
44.1560 0.28 19.63
44.1993 0.28 19.63
44.2365 0.28 19.63
44.2743 0.28 19.63
44.3111 0.41 19.76
44.3481 0.28 19.63
44.3853 0.28 19.63
44.4201 0.28 19.63
44.4567 0.28 19.63
44.4952 0.28 19.63
44.5318 0.28 19.63
44.5692 0.28 19.63
44.6059 0.28 19.63
44.6417 0.28 19.63
44.6791 0.28 19.63
44.7129 0.41 19.63
44.7502 0.41 19.63
44.7861 0.28 19.63
44.8237 0.41 19.63
44.8556 0.28 19.76
44.8934 0.28 19.76
44.9325 0.41 19.76
44.9687 0.28 19.76
45.0047 0.41 19.63
45.0383 0.28 19.63
45.0754 0.28 19.63
45.1097 0.28 19.76
45.1527 0.28 19.63
45.1919 0.41 19.63
45.2299 0.28 19.63
45.2651 0.28 19.63
45.3021 0.28 19.63
45.3409 0.28 19.63
45.3743 0.28 19.63
45.4101 0.28 19.76
45.4449 0.28 19.63
45.4840 0.41 19.63
45.5196 0.15 19.63
45.5568 0.28 19.63
45.5964 0.28 19.63
45.6301 0.28 19.63
45.6675 0.28 19.63
45.7038 0.28 19.63
45.7404 0.28 19.50
45.7778 0.28 19.63
45.8142 0.28 19.63
45.8516 0.28 19.63
45.8884 0.28 19.63
45.9243 0.41 19.63
45.9612 0.28 19.63
45.9994 0.28 19.63
46.0389 0.28 19.63
46.0732 0.41 19.63
46.1095 0.28 19.63
46.1521 0.28 19.63
46.1916 0.28 19.76
46.2269 0.41 19.63
46.2637 0.28 19.63
46.3011 0.28 19.63
46.3380 0.28 19.76
46.3749 0.28 19.89
46.4127 0.28 19.63
46.4483 0.41 19.63
46.4874 0.41 19.76
46.5271 0.28 19.63
46.5639 0.28 19.63
46.6009 0.41 19.63
46.6384 0.28 19.76
46.6735 0.28 19.63
46.7088 0.28 19.63
46.7476 0.28 19.63
46.7849 0.28 19.76
46.8214 0.28 19.63
46.8593 0.15 19.63
46.8958 0.28 19.76
46.9313 0.28 19.63
46.9692 0.28 19.63
47.0025 0.41 19.63
47.0351 0.41 19.63
47.0724 0.41 19.63
47.1083 0.28 19.63
47.1540 0.28 19.63
47.1893 0.28 19.63
47.2281 0.28 19.63
47.2656 0.28 19.63
47.2994 0.28 19.76
47.3369 0.28 19.63
47.3709 0.41 19.76
47.4040 0.28 19.63
47.4443 0.28 19.63
47.4817 0.28 19.63
47.5166 0.41 19.63
47.5565 0.41 19.63
47.5922 0.41 19.76
47.6287 0.28 19.63
47.6665 0.28 19.63
47.7026 0.41 19.63
47.7397 0.41 19.63
47.7779 0.28 19.63
47.8126 0.28 19.63
47.8510 0.28 19.76
47.8870 0.28 19.63
47.9196 0.28 19.63
47.9563 0.28 19.76
47.9955 0.41 19.63
48.0307 0.28 19.63
48.0651 0.15 19.63
48.1045 0.28 19.76
48.1439 0.28 19.63
48.1821 0.28 19.76
48.2187 0.41 19.76
48.2534 0.28 19.63
48.2886 0.28 19.63
48.3245 0.28 19.76
48.3614 0.28 19.63
48.3988 0.41 19.63
48.4354 0.28 19.63
48.4722 0.41 19.76
48.5107 0.28 19.63
48.5453 0.28 19.63
48.5830 0.28 19.63
48.6192 0.28 19.63
48.6576 0.28 19.63
48.6923 0.28 19.76
48.7304 0.28 19.63
48.7684 0.28 19.63
48.8045 0.28 19.63
48.8413 0.28 19.63
48.8763 0.28 19.76
48.9115 0.28 19.63
48.9475 0.28 19.63
48.9828 0.28 19.63
49.0214 0.28 19.76
49.0547 0.28 19.63
49.0919 0.41 19.63
49.1238 0.28 19.63
49.1679 0.28 19.63
49.2049 0.41 19.76
49.2419 0.28 19.63
49.2796 0.41 19.63
49.3162 0.28 19.63
49.3537 0.28 19.63
49.3861 0.28 19.63
49.4237 0.28 19.63
49.4606 0.41 19.76
49.4941 0.28 19.63
49.5294 0.28 19.76
49.5653 0.28 19.63
49.5990 0.28 19.63
49.6363 0.28 19.63
49.6718 0.28 19.63
49.7091 0.28 19.63
49.7424 0.28 19.63
49.7750 0.28 19.63
49.8128 0.41 19.63
49.8475 0.28 19.63
49.8907 0.28 19.76
49.9244 0.28 19.63
49.9593 0.28 19.63
49.9914 0.28 19.63
50.0294 0.28 19.63
50.0664 0.41 19.63
50.1029 0.41 19.63
50.1380 0.15 19.63
50.1802 0.28 19.76
50.2174 0.28 19.63
50.2545 0.28 19.63
50.2905 0.28 19.63
50.3278 0.28 19.63
50.3644 0.28 19.76
50.4015 0.28 19.63
50.4392 0.28 19.76
50.4743 0.28 19.63
50.5131 0.28 19.76
50.5450 0.28 19.63
50.5829 0.28 19.63
50.6196 0.28 19.63
50.6565 0.28 19.63
50.6906 0.28 19.63
50.7281 0.28 19.63
50.7648 0.15 19.63
50.8001 0.28 19.63
50.8322 0.28 19.76
50.8694 0.28 19.63
50.9034 0.28 19.63
50.9384 0.41 19.63
50.9757 0.28 19.63
51.0081 0.28 19.76
51.0439 0.28 19.63
51.0778 0.28 19.63
51.1130 0.28 19.63
51.1588 0.28 19.63
51.1964 0.28 19.63
51.2331 0.28 19.63
51.2697 0.28 19.63
51.3064 0.28 19.63
51.3443 0.41 19.63
51.3813 0.41 19.63
51.4178 0.28 19.76
51.4545 0.15 19.76
51.4909 0.28 19.63
51.5278 0.28 19.76
51.5657 0.28 19.63
51.5987 0.28 19.63
51.6308 0.28 19.76
51.6675 0.28 19.63
51.7055 0.28 19.63
51.7376 0.28 19.63
51.7746 0.28 19.63
51.8100 0.41 19.63
51.8473 0.28 19.63
51.8802 0.28 19.63
51.9175 0.28 19.63
51.9550 0.28 19.63
51.9889 0.28 19.63
52.0236 0.28 19.63
52.0608 0.28 19.63
52.0977 0.28 19.63
52.1377 0.28 19.63
52.1841 0.28 19.63
52.2202 0.28 19.63
52.2570 0.28 19.63
52.2930 0.28 19.63
52.3299 0.28 19.63
52.3675 0.28 19.63
52.4051 0.28 19.63
52.4394 0.28 19.63
52.4743 0.28 19.76
52.5104 0.28 19.63
52.5476 0.15 19.63
52.5844 0.28 19.63
52.6198 0.15 19.63
52.6550 0.28 19.63
52.6898 0.28 19.63
52.7241 0.28 19.63
52.7607 0.28 19.63
52.7940 0.28 19.63
52.8311 0.28 19.63
52.8674 0.28 19.76
52.9040 0.28 19.63
52.9398 0.28 19.63
52.9763 0.28 19.50
53.0139 0.28 19.76
53.0520 0.28 19.63
53.0866 0.28 19.63
53.1211 0.28 19.63
53.1702 0.28 19.63
53.2064 0.28 19.63
53.2450 0.28 19.63
53.2818 0.28 19.63
53.3187 0.15 19.63
53.3532 0.28 19.63
53.3916 0.28 19.63
53.4281 0.28 19.63
53.4652 0.28 19.63
53.5019 0.28 19.63
53.5389 0.28 19.76
53.5764 0.28 19.63
53.6125 0.28 19.63
53.6475 0.28 19.63
53.6803 0.28 19.63
53.7155 0.28 19.76
53.7527 0.28 19.76
53.7893 0.28 19.63
53.8262 0.28 19.63
53.8622 0.28 19.63
53.9001 0.28 19.63
53.9369 0.28 19.76
53.9686 0.41 19.63
54.0055 0.28 19.63
54.0420 0.28 19.63
54.0796 0.28 19.63
54.1166 0.28 19.76
54.1591 0.28 19.63
54.1931 0.28 19.76
54.2296 0.28 19.76
54.2695 0.28 19.76
54.3050 0.41 19.63
54.3404 0.28 19.63
54.3780 0.28 19.63
54.4152 0.28 19.63
54.4523 0.28 19.63
54.4895 0.28 19.63
54.5261 0.28 19.63
54.5608 0.28 19.63
54.5962 0.28 19.63
54.6318 0.28 19.63
54.6655 0.28 19.63
time[sec] Pin[KPa] Pout[KPa]
06 24 19 16:13:37
0.1220 0.28 0.41
0.1946 0.67 0.41
0.2610 1.83 0.41
0.2958 2.86 0.28
0.3356 3.77 0.41
0.3761 4.67 0.41
0.4123 5.31 0.54
0.4489 6.22 0.41
0.4861 6.73 0.54
0.5230 7.51 0.41
0.5600 8.28 0.41
0.5946 8.92 0.41
0.6327 9.57 0.41
0.6830 10.21 0.41
0.7183 10.99 0.41
0.7549 11.63 0.41
0.7917 12.15 0.54
0.8285 12.92 0.41
0.8667 13.44 0.41
0.9030 13.95 0.41
0.9401 14.47 0.41
0.9775 14.99 0.54
1.0127 15.50 0.54
1.0512 16.02 0.54
1.0887 16.53 0.54
1.1255 16.92 0.41
1.1612 17.44 0.54
1.1969 17.95 0.54
1.2349 18.34 0.54
1.2731 18.73 0.41
1.3101 19.24 0.54
1.3449 19.63 0.54
1.3838 20.01 0.54
1.4207 20.53 0.54
1.4566 20.79 0.54
1.4938 21.30 0.41
1.5341 21.56 0.28
1.5719 21.95 0.41
1.6175 22.34 0.41
1.6572 22.59 0.41
1.6947 22.98 0.54
1.7297 23.37 0.41
1.7666 23.63 0.28
1.8049 24.01 0.41
1.8425 24.14 0.41
1.8769 24.53 0.54
1.9157 24.79 0.41
1.9511 25.04 0.41
1.9932 25.30 0.41
2.0348 25.56 0.54
2.0694 25.82 0.54
2.1127 26.08 0.54
2.1570 26.33 0.54
2.1991 26.46 0.54
2.2399 26.72 0.41
2.2751 26.98 0.54
2.3132 27.11 0.41
2.3484 27.37 0.41
2.3857 27.62 0.41
2.4241 27.62 0.41
2.4648 27.75 0.41
2.5026 28.01 0.41
2.5421 28.14 0.54
2.5848 28.27 0.41
2.6202 28.40 0.54
2.6719 28.53 0.54
2.7101 28.66 0.41
2.7468 28.91 0.41
2.7838 28.91 0.54
2.8218 29.17 0.41
2.8584 29.17 0.41
2.8971 29.30 0.41
2.9355 29.43 0.41
2.9704 29.56 0.41
3.0073 29.69 0.41
3.0498 29.69 0.41
3.0870 29.82 0.54
3.1267 29.82 0.54
3.1658 29.94 0.41
3.2028 29.94 0.41
3.2368 30.07 0.41
3.2732 30.20 0.41
3.3111 30.20 0.41
3.3498 30.20 0.41
3.3870 30.33 0.41
3.4218 30.46 0.41
3.4594 30.46 0.54
3.4974 30.46 0.41
3.5337 30.59 0.28
3.5690 30.59 0.41
3.6059 30.72 0.41
3.6451 30.72 0.41
3.6884 30.72 0.41
3.7259 30.85 0.41
3.7637 30.85 0.41
3.7994 30.85 0.28
3.8352 30.85 0.41
3.8730 30.98 0.54
3.9106 30.98 0.41
3.9470 30.98 0.54
3.9859 30.98 0.41
4.0251 30.98 0.54
4.0629 31.11 0.41
4.0977 31.23 0.41
4.1317 31.11 0.41
4.1664 31.11 0.41
4.2039 31.23 0.54
4.2404 31.23 0.41
4.2784 31.23 0.41
4.3164 31.23 0.41
4.3514 31.23 0.41
4.3896 31.36 0.41
4.4272 31.36 0.41
4.4669 31.36 0.41
4.5041 31.36 0.41
4.5406 31.36 0.41
4.5779 31.36 0.54
4.6187 31.36 0.54
4.6649 31.36 0.54
4.7023 31.36 0.54
4.7404 31.49 0.54
4.7776 31.49 0.54
4.8166 31.36 0.41
4.8509 31.49 0.41
4.8847 31.49 0.41
4.9196 31.49 0.41
4.9552 31.49 0.41
4.9953 31.62 0.54
5.0319 31.49 0.54
5.0687 31.62 0.41
5.1064 31.62 0.54
5.1438 31.49 0.41
5.1789 31.49 0.41
5.2159 31.49 0.41
5.2531 31.62 0.41
5.2935 31.62 0.41
5.3296 31.62 0.41
5.3676 31.62 0.41
5.4046 31.62 0.41
5.4422 31.62 0.41
5.4773 31.75 0.41
5.5116 31.75 0.54
5.5470 31.62 0.41
5.5836 31.62 0.41
5.6200 31.62 0.41
5.6683 31.75 0.41
5.7039 31.62 0.54
5.7406 31.62 0.41
5.7779 31.75 0.41
5.8143 31.62 0.41
5.8523 31.75 0.41
5.8875 31.62 0.54
5.9250 31.75 0.41
5.9606 31.62 0.67
5.9980 31.62 0.41
6.0362 31.62 0.41
6.0728 31.62 0.54
6.1099 31.75 0.41
6.1429 31.75 0.41
6.1787 31.62 0.54
6.2176 31.75 0.54
6.2548 31.75 0.41
6.2886 31.75 0.54
6.3259 31.75 0.54
6.3636 31.75 0.41
6.3993 31.75 0.54
6.4363 31.62 0.54
6.4738 31.75 0.41
6.5113 31.75 0.54
6.5484 31.75 0.54
6.5864 31.75 0.41
6.6213 31.88 0.41
6.6653 31.75 0.41
6.7032 31.75 0.54
6.7405 31.75 0.41
6.7753 31.75 0.41
6.8097 31.75 0.41
6.8474 31.75 0.41
6.8841 31.75 0.41
6.9183 31.75 0.41
6.9512 31.75 0.41
6.9860 31.75 0.54
7.0224 31.88 0.41
7.0601 31.75 0.54
7.0923 31.75 0.41
7.1296 31.88 0.41
7.1669 31.75 0.54
7.2025 31.75 0.54
7.2387 31.75 0.41
7.2749 31.75 0.41
7.3080 31.75 0.41
7.3464 31.75 0.41
7.3820 31.75 0.41
7.4200 31.75 0.54
7.4574 31.75 0.41
7.4940 31.75 0.41
7.5299 31.88 0.41
7.5671 31.75 0.41
7.6044 31.75 0.54
7.6434 31.75 0.54
7.6947 31.75 0.54
7.7308 31.88 0.41
7.7675 31.75 0.41
7.8048 31.88 0.41
7.8414 31.88 0.41
7.8785 31.75 0.41
7.9162 31.88 0.41
7.9518 31.88 0.41
7.9881 31.88 0.54
8.0254 31.88 0.54
8.0630 31.88 0.41
8.0994 31.88 0.41
8.1368 31.75 0.41
8.1746 31.88 0.54
8.2113 31.88 0.41
8.2482 31.88 0.41
8.2854 31.75 0.41
8.3196 31.75 0.28
8.3579 31.88 0.41
8.3948 31.88 0.41
8.4295 31.88 0.41
8.4651 31.88 0.41
8.5014 31.75 0.41
8.5376 31.88 0.41
8.5755 31.88 0.54
8.6116 31.88 0.41
8.6523 31.88 0.41
8.6903 31.75 0.54
8.7219 31.88 0.41
8.7597 31.88 0.41
8.7949 31.88 0.41
8.8313 31.88 0.41
8.8714 31.88 0.41
8.9035 31.88 0.41
8.9351 31.88 0.41
8.9716 31.88 0.41
9.0085 31.88 0.41
9.0464 31.88 0.54
9.0824 31.88 0.41
9.1200 31.75 0.41
9.1574 31.88 0.41
9.1932 31.88 0.54
9.2307 31.88 0.41
9.2682 31.88 0.54
9.3020 31.88 0.41
9.3347 31.88 0.41
9.3708 31.88 0.41
9.4022 31.75 0.41
9.4376 31.88 0.41
9.4727 31.88 0.54
9.5094 31.88 0.41
9.5422 31.88 0.54
9.5781 31.88 0.41
9.6158 31.88 0.54
9.6582 31.88 0.41
9.6969 31.88 0.54
9.7301 31.88 0.41
9.7665 31.88 0.41
9.8031 31.88 0.41
9.8404 31.88 0.54
9.8776 31.88 0.41
9.9143 31.88 0.54
9.9493 31.88 0.54
9.9844 31.88 0.41
10.0211 31.88 0.41
10.0577 31.88 0.41
10.0905 32.01 0.41
10.1316 31.88 0.41
10.1684 31.88 0.41
10.2048 31.88 0.41
10.2416 32.01 0.41
10.2787 31.88 0.41
10.3153 31.88 0.41
10.3531 31.88 0.41
10.3898 31.88 0.54
10.4247 31.88 0.41
10.4619 31.88 0.41
10.5002 32.01 0.41
10.5365 31.88 0.54
10.5738 31.88 0.41
10.6098 31.88 0.41
10.6487 31.88 0.54
10.6956 31.88 0.41
10.7346 31.88 0.54
10.7709 32.01 0.41
10.8121 32.01 0.41
10.8482 31.88 0.41
10.8853 32.01 0.54
10.9218 31.88 0.41
10.9587 31.88 0.41
10.9948 32.01 0.54
11.0327 32.01 0.41
11.0681 32.01 0.54
11.1041 31.88 0.54
11.1398 32.01 0.54
11.1713 31.88 0.54
11.2090 32.01 0.54
11.2497 31.88 0.41
11.2861 32.01 0.41
11.3221 32.01 0.54
11.3562 31.88 0.54
11.3932 32.01 0.41
11.4288 32.01 0.54
11.4671 32.01 0.54
11.5030 32.01 0.41
11.5405 31.88 0.41
11.5775 32.01 0.41
11.6136 31.88 0.54
11.6565 32.01 0.41
11.6951 31.88 0.41
11.7320 32.01 0.41
11.7700 32.01 0.28
11.8062 32.01 0.41
11.8425 31.88 0.54
11.8801 32.01 0.41
11.9177 32.01 0.41
11.9546 32.01 0.41
11.9909 32.01 0.41
12.0280 32.01 0.54
12.0608 32.01 0.41
12.0979 32.01 0.41
12.1303 31.88 0.54
12.1671 32.01 0.54
12.2056 32.01 0.54
12.2406 32.01 0.41
12.2774 32.01 0.41
12.3148 32.01 0.28
12.3524 32.01 0.41
12.3837 32.01 0.67
12.4220 32.01 0.41
12.4579 32.01 0.54
12.4952 32.14 0.41
12.5303 32.01 0.54
12.5689 32.01 0.41
12.6057 32.01 0.54
12.6450 32.01 0.54
12.6953 32.14 0.54
12.7330 32.01 0.54
12.7703 32.01 0.41
12.8046 32.01 0.54
12.8414 32.01 0.54
12.8786 32.01 0.54
12.9151 32.01 0.41
12.9524 32.14 0.28
12.9903 32.14 0.54
13.0276 32.01 0.41
13.0635 32.01 0.54
13.1009 32.14 0.41
13.1373 32.01 0.54
13.1754 32.01 0.54
13.2099 32.01 0.54
13.2472 32.01 0.41
13.2846 32.01 0.54
13.3216 32.01 0.41
13.3591 32.01 0.54
13.3951 32.01 0.41
13.4321 31.88 0.54
13.4694 32.01 0.41
13.5063 32.01 0.41
13.5414 32.01 0.41
13.5756 32.01 0.41
13.6107 32.01 0.54
13.6497 32.01 0.28
13.6977 32.01 0.41
13.7386 32.01 0.41
13.7764 32.14 0.41
13.8131 32.14 0.54
13.8509 32.01 0.54
13.8861 32.01 0.54
13.9235 32.01 0.41
13.9600 32.14 0.41
13.9980 32.01 0.41
14.0355 32.14 0.54
14.0722 32.14 0.54
14.1077 32.14 0.54
14.1442 32.01 0.54
14.1820 32.14 0.54
14.2184 32.14 0.41
14.2554 32.14 0.41
14.2934 32.14 0.67
14.3276 32.14 0.54
14.3663 32.14 0.54
14.4023 32.14 0.54
14.4386 32.14 0.41
14.4760 32.14 0.41
14.5125 32.14 0.54
14.5492 32.27 0.54
14.5874 32.27 0.41
14.6245 32.14 0.41
14.6687 32.14 0.54
14.7055 32.14 0.54
14.7418 32.27 0.41
14.7798 32.14 0.54
14.8164 32.14 0.67
14.8545 32.14 0.54
14.8907 32.14 0.54
14.9277 32.14 0.54
14.9651 32.27 0.54
15.0011 32.14 0.41
15.0400 32.14 0.54
15.0807 32.01 0.41
15.1200 32.27 0.41
15.1557 32.14 0.54
15.1941 32.14 0.41
15.2320 32.14 0.41
15.2671 32.14 0.41
15.3048 32.14 0.41
15.3415 32.27 0.41
15.3770 32.27 0.54
15.4149 32.14 0.41
15.4514 32.27 0.54
15.4891 32.14 0.54
15.5258 32.27 0.54
15.5639 32.14 0.54
15.5993 32.14 0.41
15.6368 32.14 0.41
15.6802 32.14 0.41
15.7178 32.14 0.41
15.7552 32.14 0.41
15.7925 32.14 0.41
15.8286 32.27 0.41
15.8649 32.14 0.41
15.9015 32.27 0.41
15.9392 32.14 0.41
15.9761 32.27 0.41
16.0132 32.14 0.41
16.0503 32.27 0.54
16.0876 32.27 0.41
16.1236 32.27 0.41
16.1612 32.27 0.54
16.1973 32.14 0.41
16.2341 32.14 0.41
16.2707 32.27 0.41
16.3082 32.14 0.54
16.3450 32.14 0.54
16.3808 32.14 0.41
16.4175 32.14 0.41
16.4551 32.14 0.41
16.4920 32.14 0.54
16.5294 32.14 0.54
16.5642 32.27 0.54
16.6019 32.27 0.54
16.6369 32.14 0.41
16.6812 32.27 0.41
16.7178 32.27 0.41
16.7500 32.14 0.41
16.7883 32.27 0.41
16.8239 32.27 0.54
16.8606 32.27 0.54
16.8958 32.27 0.41
16.9311 32.27 0.54
16.9656 32.27 0.41
17.0007 32.27 0.41
17.0354 32.27 0.41
17.0737 32.27 0.41
17.1117 32.14 0.41
17.1475 32.27 0.41
17.1830 32.14 0.54
17.2245 32.27 0.41
17.2583 32.39 0.41
17.2930 32.14 0.41
17.3290 32.27 0.41
17.3607 32.27 0.54
17.4008 32.27 0.54
17.4383 32.27 0.41
17.4748 32.27 0.41
17.5101 32.27 0.41
17.5479 32.27 0.41
17.5844 32.27 0.41
17.6218 32.27 0.54
17.6677 32.27 0.54
17.7049 32.14 0.54
17.7419 32.27 0.54
17.7792 32.27 0.54
17.8152 32.27 0.54
17.8527 32.27 0.41
17.8849 32.27 0.54
17.9260 32.27 0.54
17.9623 32.27 0.41
17.9991 32.27 0.54
18.0357 32.27 0.54
18.0732 32.27 0.54
18.1079 32.27 0.41
18.1409 32.27 0.41
18.1758 32.27 0.41
18.2162 32.39 0.41
18.2516 32.27 0.54
18.2860 32.27 0.41
18.3227 32.27 0.41
18.3581 32.27 0.41
18.3966 32.27 0.41
18.4337 32.27 0.41
18.4704 32.39 0.41
18.5076 32.27 0.41
18.5437 32.39 0.54
18.5802 32.27 0.41
18.6175 32.27 0.54
18.6629 32.27 0.41
18.6999 32.27 0.41
18.7372 32.27 0.41
18.7716 32.27 0.41
18.8086 32.27 0.41
18.8463 32.27 0.54
18.8849 32.39 0.41
18.9177 32.27 0.41
18.9538 32.27 0.54
18.9911 32.27 0.41
19.0277 32.39 0.41
19.0636 32.27 0.41
19.1005 32.39 0.41
19.1403 32.27 0.41
19.1844 32.27 0.54
19.2210 32.27 0.41
19.2569 32.27 0.54
19.2934 32.27 0.41
19.3299 32.27 0.54
19.3662 32.39 0.67
19.4037 32.27 0.54
19.4405 32.27 0.41
19.4769 32.27 0.54
19.5152 32.27 0.54
19.5513 32.39 0.41
19.5898 32.27 0.54
19.6245 32.27 0.54
19.6676 32.39 0.54
19.6996 32.39 0.41
19.7395 32.39 0.54
19.7765 32.27 0.28
19.8137 32.39 0.54
19.8485 32.27 0.54
19.8846 32.39 0.41
19.9192 32.27 0.54
19.9555 32.27 0.41
19.9928 32.27 0.41
20.0304 32.27 0.54
20.0682 32.39 0.54
20.1048 32.27 0.54
20.1413 32.27 0.41
20.1776 32.27 0.41
20.2153 32.27 0.54
20.2524 32.27 0.41
20.2875 32.27 0.41
20.3243 32.39 0.41
20.3625 32.27 0.41
20.3995 32.27 0.54
20.4390 32.27 0.41
20.4754 32.27 0.28
20.5117 32.27 0.54
20.5464 32.27 0.41
20.5839 32.27 0.41
20.6217 32.39 0.54
20.6638 32.27 0.41
20.7020 32.39 0.41
20.7390 32.27 0.41
20.7756 32.27 0.41
20.8133 32.27 0.41
20.8505 32.27 0.54
20.8826 32.27 0.54
20.9202 32.27 0.41
20.9528 32.27 0.54
20.9868 32.27 0.54
21.0250 32.27 0.41
21.0628 32.27 0.41
21.1001 32.27 0.54
21.1371 32.27 0.41
21.1735 32.27 0.54
21.2107 32.27 0.54
21.2458 32.27 0.54
21.2838 32.27 0.54
21.3202 32.27 0.54
21.3578 32.27 0.41
21.3947 32.27 0.54
21.4310 32.39 0.41
21.4696 32.27 0.41
21.5081 32.27 0.41
21.5461 32.27 0.41
21.5840 32.27 0.54
21.6195 32.27 0.41
21.6662 32.27 0.54
21.7011 32.27 0.28
21.7394 32.14 0.41
21.7747 32.27 0.41
21.8123 32.27 0.41
21.8506 32.27 0.54
21.8853 32.27 0.54
21.9220 32.39 0.54
21.9585 32.27 0.67
21.9967 32.39 0.54
22.0340 32.27 0.54
22.0705 32.39 0.54
22.1075 32.39 0.54
22.1424 32.27 0.41
22.1777 32.27 0.54
22.2144 32.27 0.54
22.2497 32.27 0.54
22.2871 32.27 0.54
22.3243 32.39 0.54
22.3617 32.27 0.41
22.3984 32.27 0.41
22.4350 32.27 0.41
22.4716 32.14 0.41
22.5094 32.27 0.41
22.5446 32.27 0.41
22.5813 32.27 0.41
22.6167 32.27 0.41
22.6593 32.39 0.54
22.6975 32.27 0.28
22.7329 32.27 0.41
22.7696 32.27 0.54
22.8086 32.27 0.54
22.8449 32.14 0.67
22.8804 32.14 0.67
22.9164 32.27 0.54
22.9469 32.14 0.54
22.9847 32.14 0.67
23.0175 32.27 0.54
23.0496 32.14 0.41
23.0845 32.14 0.67
23.1175 32.14 0.41
23.1566 32.27 0.41
23.1928 32.14 0.54
23.2285 32.27 0.41
23.2658 32.14 0.41
23.3034 32.01 0.54
23.3369 32.14 0.54
23.3772 32.14 0.41
23.4149 32.14 0.41
23.4502 32.14 0.41
23.4833 32.14 0.54
23.5209 32.14 0.41
23.5575 32.14 0.41
23.5932 32.14 0.41
23.6292 32.14 0.41
23.6766 32.14 0.41
23.7131 32.14 0.41
23.7509 32.14 0.41
23.7856 32.14 0.54
23.8225 32.14 0.41
23.8561 32.14 0.41
23.8930 32.14 0.41
23.9307 32.14 0.41
23.9669 32.14 0.54
24.0035 32.14 0.54
24.0412 32.14 0.41
24.0780 32.14 0.41
24.1130 32.14 0.54
24.1505 32.14 0.41
24.1880 32.01 0.54
24.2257 32.01 0.54
24.2621 32.14 0.41
24.2992 32.01 0.41
24.3385 32.01 0.41
24.3769 32.01 0.41
24.4146 32.01 0.54
24.4505 32.01 0.41
24.4851 32.14 0.54
24.5199 32.01 0.54
24.5571 32.01 0.41
24.5941 32.01 0.54
24.6267 32.01 0.41
24.6709 32.01 0.54
24.7081 32.01 0.41
24.7453 32.01 0.54
24.7812 31.88 0.41
24.8147 32.01 0.41
24.8480 32.01 0.41
24.8849 32.01 0.54
24.9224 31.88 0.41
24.9545 31.88 0.54
24.9897 32.01 0.41
25.0261 31.88 0.41
25.0643 31.88 0.41
25.1020 31.88 0.41
25.1420 31.88 0.54
25.1793 31.88 0.41
25.2165 31.88 0.54
25.2564 31.88 0.41
25.2935 31.88 0.54
25.3296 31.88 0.41
25.3688 31.88 0.41
25.4044 31.75 0.41
25.4393 31.75 0.41
25.4752 31.75 0.41
25.5113 31.75 0.41
25.5487 31.75 0.41
25.5836 31.75 0.54
25.6176 31.75 0.41
25.6672 31.62 0.54
25.7028 31.62 0.54
25.7399 31.62 0.54
25.7783 31.62 0.54
25.8139 31.62 0.54
25.8514 31.62 0.54
25.8845 31.62 0.41
25.9211 31.49 0.41
25.9553 31.49 0.54
25.9888 31.49 0.54
26.0259 31.49 0.54
26.0628 31.49 0.54
26.1005 31.49 0.54
26.1375 31.49 0.41
26.1750 31.49 0.41
26.2106 31.49 0.41
26.2451 31.49 0.41
26.2794 31.36 0.54
26.3173 31.49 0.41
26.3550 31.36 0.54
26.3918 31.36 0.54
26.4279 31.36 0.41
26.4614 31.49 0.41
26.4962 31.36 0.54
26.5312 31.36 0.41
26.5656 31.36 0.41
26.6006 31.36 0.41
26.6383 31.36 0.41
26.6780 31.23 0.54
26.7155 31.36 0.54
26.7504 31.36 0.54
26.7894 31.36 0.54
26.8219 31.36 0.41
26.8586 31.36 0.54
26.8916 31.36 0.03
26.9285 31.23 0.54
26.9647 31.23 0.41
26.9999 31.23 0.54
27.0346 31.23 0.41
27.0722 31.23 0.54
27.1089 31.23 0.54
27.1449 31.23 0.41
27.1824 31.23 0.41
27.2197 31.23 0.41
27.2560 31.23 0.54
27.2928 31.23 0.54
27.3329 31.36 0.54
27.3663 31.23 0.54
27.4038 31.11 0.54
27.4392 31.11 0.54
27.4763 31.23 0.54
27.5135 31.23 0.54
27.5502 31.23 0.41
27.5881 31.23 0.54
27.6244 31.23 0.54
27.6678 31.11 0.54
27.7046 31.23 0.54
27.7379 31.23 0.41
27.7761 31.23 0.54
27.8116 31.23 0.54
27.8497 31.23 0.41
27.8858 31.23 0.54
27.9230 31.11 0.54
27.9609 31.23 0.54
27.9971 31.23 0.54
28.0342 31.23 0.54
28.0697 31.11 0.54
28.1045 31.11 0.54
28.1409 31.11 0.41
28.1760 31.11 0.41
28.2138 31.11 0.41
28.2520 31.11 0.54
28.2892 31.11 0.41
28.3247 31.11 0.54
28.3616 31.11 0.54
28.3983 31.23 0.41
28.4359 31.11 0.41
28.4732 31.11 0.41
28.5091 31.11 0.41
28.5463 30.98 0.41
28.5840 31.11 0.41
28.6175 31.11 0.41
28.6627 31.11 0.41
28.7016 31.11 0.54
28.7390 31.11 0.41
28.7717 31.23 0.41
28.8064 31.23 0.41
28.8404 31.11 0.54
28.8783 31.11 0.54
28.9110 31.11 0.41
28.9460 31.11 0.54
28.9830 31.11 0.54
29.0194 31.23 0.54
29.0572 31.11 0.41
29.0951 31.11 0.54
29.1352 31.11 0.54
29.1723 31.11 0.54
29.2081 31.11 0.54
29.2451 31.11 0.54
29.2836 31.11 0.54
29.3207 31.11 0.54
29.3569 31.11 0.41
29.3947 31.11 0.54
29.4340 31.11 0.54
29.4710 31.11 0.41
29.5089 31.23 0.54
29.5444 31.11 0.54
29.5805 31.11 0.54
29.6156 31.23 0.67
29.6563 31.11 0.41
29.6971 31.11 0.54
29.7342 31.11 0.54
29.7745 31.11 0.54
29.8123 31.23 0.41
29.8464 31.11 0.41
29.8845 31.11 0.54
29.9215 31.11 0.54
29.9583 31.11 0.41
29.9946 31.11 0.54
30.0337 31.11 0.41
30.0734 31.11 0.54
30.1101 30.07 0.54
30.1489 29.04 0.41
30.1848 27.88 0.54
30.2204 27.11 0.41
30.2565 26.08 0.54
30.2944 25.17 0.41
30.3314 24.14 0.41
30.3649 23.37 0.41
30.4010 22.59 0.41
30.4379 21.82 0.54
30.4761 20.92 0.41
30.5105 20.40 0.41
30.5481 19.89 0.54
30.5857 19.24 0.41
30.6233 18.60 0.54
30.6686 17.95 0.54
30.7090 17.05 0.54
30.7458 16.53 0.54
30.7809 15.63 0.54
30.8153 15.11 0.41
30.8533 14.60 0.54
30.8888 13.95 0.54
30.9249 13.44 0.54
30.9622 12.92 0.54
30.9992 12.41 0.67
31.0342 11.76 1.06
31.0694 11.63 5.83
31.1108 11.12 7.25
31.1472 10.60 7.38
31.1848 10.34 7.51
31.2211 9.83 7.63
31.2561 9.31 7.76
31.2940 8.92 7.89
31.3319 8.54 7.89
31.3682 8.15 7.89
31.4047 7.76 8.02
31.4402 7.51 8.02
31.4777 7.12 7.89
31.5145 6.73 8.02
31.5528 6.34 8.15
31.5874 6.09 8.28
31.6240 5.83 8.67
31.6743 5.57 8.67
31.7121 5.31 8.67
31.7496 4.93 8.80
31.7893 4.67 8.92
31.8264 4.41 8.92
31.8617 4.02 9.05
31.8948 4.02 9.05
31.9334 3.77 9.05
31.9690 3.51 9.18
32.0049 3.25 9.18
32.0397 3.12 9.31
32.0784 2.99 9.31
32.1177 2.86 9.31
32.1542 2.73 9.44
32.1874 2.48 9.44
32.2238 2.35 9.44
32.2594 2.22 9.57
32.2969 2.09 9.70
32.3348 2.09 9.70
32.3682 1.96 9.83
32.4047 1.83 9.70
32.4373 1.70 9.83
32.4742 1.57 9.96
32.5105 1.57 9.96
32.5474 1.57 9.96
32.5832 1.44 10.08
32.6220 1.32 10.21
32.6630 1.32 10.21
32.7033 1.32 10.34
32.7406 1.06 10.34
32.7788 1.06 10.47
32.8158 0.93 10.60
32.8555 0.93 10.60
32.8927 0.93 10.73
32.9251 0.93 10.73
32.9592 0.93 10.99
32.9941 0.80 10.86
33.0312 0.67 10.99
33.0672 0.80 10.99
33.1047 0.80 11.12
33.1393 0.67 11.12
33.1751 0.67 11.25
33.2090 0.54 11.25
33.2446 0.67 11.37
33.2775 0.67 11.37
33.3138 0.54 11.50
33.3504 0.54 11.50
33.3870 0.54 11.76
33.4241 0.54 11.76
33.4610 0.54 11.76
33.4974 0.54 11.89
33.5356 0.41 12.02
33.5714 0.41 12.02
33.6076 0.41 12.15
33.6475 0.41 12.15
33.6858 0.41 12.28
33.7241 0.54 12.28
33.7580 0.41 12.41
33.7933 0.41 12.41
33.8294 0.41 12.54
33.8633 0.41 12.54
33.8993 0.41 12.79
33.9364 0.41 12.79
33.9725 0.41 12.79
34.0097 0.41 12.92
34.0471 0.41 12.92
34.0841 0.28 13.05
34.1208 0.41 13.05
34.1578 0.41 13.18
34.1941 0.28 13.31
34.2324 0.41 13.31
34.2676 0.28 13.44
34.3094 0.41 13.44
34.3469 0.28 13.44
34.3791 0.41 13.57
34.4165 0.28 13.57
34.4538 0.28 13.82
34.4895 0.41 13.82
34.5232 0.41 13.82
34.5625 0.28 13.82
34.5998 0.41 13.95
34.6371 0.41 14.08
34.6771 0.28 14.08
34.7155 0.41 14.21
34.7507 0.41 14.21
34.7854 0.28 14.21
34.8212 0.28 14.47
34.8578 0.28 14.60
34.8942 0.41 14.47
34.9309 0.41 14.60
34.9649 0.28 14.73
35.0014 0.28 14.73
35.0389 0.28 14.73
35.0747 0.41 14.86
35.1120 0.28 14.86
35.1470 0.28 14.86
35.1841 0.28 14.99
35.2207 0.28 15.11
35.2580 0.28 15.11
35.2960 0.28 15.11
35.3310 0.28 15.37
35.3659 0.41 15.37
35.4017 0.41 15.24
35.4390 0.28 15.37
35.4757 0.28 15.50
35.5131 0.28 15.50
35.5504 0.28 15.63
35.5865 0.28 15.63
35.6220 0.28 15.76
35.6659 0.28 15.76
35.6980 0.41 15.89
35.7338 0.28 15.89
35.7670 0.41 15.89
35.8034 0.28 15.89
35.8388 0.28 16.15
35.8753 0.28 16.15
35.9095 0.41 16.15
35.9468 0.41 16.27
35.9835 0.28 16.27
36.0203 0.28 16.40
36.0585 0.28 16.40
36.0909 0.28 16.53
36.1234 0.28 16.66
36.1585 0.41 16.66
36.1927 0.41 16.66
36.2295 0.41 16.66
36.2669 0.28 16.79
36.3066 0.28 16.53
36.3436 0.28 16.92
36.3806 0.41 16.92
36.4179 0.41 16.92
36.4514 0.28 17.05
36.4880 0.28 17.05
36.5246 0.41 17.05
36.5602 0.28 17.05
36.5981 0.28 17.18
36.6354 0.28 17.31
36.6793 0.28 17.31
36.7167 0.28 17.44
36.7549 0.28 17.31
36.7914 0.41 17.44
36.8264 0.28 17.56
36.8650 0.28 17.56
36.9044 0.28 17.69
36.9418 0.41 17.56
36.9795 0.41 17.69
37.0149 0.28 17.95
37.0492 0.28 17.82
37.0865 0.28 17.82
37.1233 0.28 17.95
37.1585 0.28 17.95
37.1961 0.28 17.95
37.2340 0.28 18.08
37.2684 0.28 18.08
37.3064 0.41 18.08
37.3444 0.28 18.21
37.3787 0.28 18.21
37.4146 0.41 18.21
37.4522 0.28 18.34
37.4855 0.28 18.34
37.5181 0.28 18.34
37.5539 0.28 18.34
37.5897 0.28 18.47
37.6270 0.41 18.47
37.6708 0.41 18.47
37.7091 0.28 18.60
37.7445 0.28 18.60
37.7810 0.28 18.60
37.8196 0.28 18.73
37.8589 0.28 18.73
37.8958 0.28 18.73
37.9334 0.28 18.73
37.9706 0.28 18.73
38.0070 0.28 18.85
38.0446 0.28 18.85
38.0809 0.28 18.98
38.1187 0.28 18.98
38.1549 0.28 18.98
38.1925 0.28 18.98
38.2285 0.28 19.11
38.2658 0.28 18.98
38.2992 0.28 19.11
38.3352 0.41 19.11
38.3724 0.28 19.24
38.4091 0.28 19.37
38.4465 0.28 19.24
38.4789 0.41 19.24
38.5139 0.41 19.24
38.5507 0.28 19.50
38.5885 0.41 19.37
38.6257 0.28 19.37
38.6745 0.28 19.50
38.7100 0.28 19.50
38.7429 0.28 19.50
38.7811 0.41 19.63
38.8174 0.28 19.76
38.8546 0.28 19.63
38.8921 0.28 19.50
38.9298 0.41 19.63
38.9646 0.28 19.76
39.0021 0.28 19.76
39.0390 0.41 19.76
39.0769 0.41 19.76
39.1130 0.41 19.89
39.1499 0.28 19.89
39.1877 0.28 20.01
39.2228 0.28 19.89
39.2599 0.28 19.89
39.3000 0.28 20.01
39.3375 0.41 20.01
39.3752 0.28 20.01
39.4101 0.28 19.89
39.4452 0.15 20.01
39.4811 0.28 20.01
39.5182 0.28 20.14
39.5553 0.28 20.01
39.5923 0.28 20.01
39.6279 0.41 20.14
39.6739 0.28 20.14
39.7119 0.28 20.14
39.7490 0.28 20.27
39.7835 0.28 20.27
39.8211 0.28 20.27
39.8571 0.28 20.14
39.8957 0.41 20.27
39.9326 0.28 20.27
39.9699 0.28 20.27
40.0061 0.28 20.27
40.0462 0.28 20.40
40.0830 0.28 20.27
40.1208 0.41 20.40
40.1578 0.28 20.27
40.1941 0.28 20.40
40.2296 0.28 20.40
40.2678 0.41 20.40
40.3050 0.28 20.40
40.3419 0.28 20.40
40.3781 0.41 20.40
40.4128 0.28 20.53
40.4490 0.28 20.40
40.4833 0.28 20.53
40.5210 0.41 20.53
40.5586 0.28 20.53
40.5955 0.41 20.53
40.6325 0.28 20.53
40.6744 0.28 20.66
40.7112 0.28 20.53
40.7459 0.28 20.53
40.7832 0.28 20.53
40.8192 0.28 20.66
40.8583 0.28 20.53
40.8929 0.28 20.53
40.9278 0.28 20.66
40.9649 0.28 20.66
41.0018 0.28 20.79
41.0385 0.28 20.66
41.0703 0.28 20.66
41.1082 0.28 20.66
41.1431 0.28 20.66
41.1802 0.28 20.66
41.2185 0.28 20.79
41.2551 0.28 20.66
41.2923 0.28 20.66
41.3294 0.28 20.79
41.3664 0.28 20.66
41.4039 0.28 20.79
41.4382 0.41 20.79
41.4764 0.28 20.79
41.5134 0.28 20.79
41.5501 0.28 20.79
41.5865 0.41 20.79
41.6235 0.28 20.79
41.6692 0.28 20.79
41.7052 0.41 20.79
41.7465 0.28 20.79
41.7840 0.28 20.79
41.8210 0.28 20.79
41.8570 0.28 20.79
41.8928 0.41 20.79
41.9314 0.28 20.79
41.9665 0.28 20.79
42.0045 0.28 20.92
42.0414 0.41 20.79
42.0785 0.28 20.79
42.1160 0.28 20.79
42.1483 0.28 20.92
42.1854 0.28 20.79
42.2223 0.28 20.79
42.2572 0.28 20.79
42.2956 0.28 20.79
42.3324 0.15 20.79
42.3698 0.41 20.79
42.4048 0.28 20.92
42.4384 0.28 20.79
42.4752 0.28 20.79
42.5088 0.41 20.79
42.5476 0.15 20.79
42.5845 0.41 20.92
42.6175 0.41 20.92
42.6610 0.28 20.92
42.6967 0.28 20.79
42.7339 0.28 20.79
42.7718 0.28 20.79
42.8080 0.28 20.92
42.8442 0.28 20.92
42.8814 0.28 20.79
42.9177 0.41 20.92
42.9555 0.28 21.05
42.9916 0.28 20.92
43.0285 0.28 20.92
43.0658 0.28 20.92
43.1031 0.28 20.79
43.1398 0.28 21.05
43.1747 0.28 20.92
43.2126 0.28 20.92
43.2501 0.28 20.92
43.2891 0.41 21.05
43.3225 0.41 20.92
43.3593 0.41 20.92
43.3981 0.28 20.92
43.4332 0.28 20.92
43.4706 0.28 20.92
43.5078 0.41 20.92
43.5450 0.28 20.92
43.5812 0.28 20.92
43.6187 0.41 20.92
43.6637 0.28 21.05
43.7012 0.28 20.92
43.7391 0.41 20.92
43.7719 0.28 20.92
43.8145 0.41 20.92
43.8530 0.28 20.92
43.8877 0.28 20.79
43.9265 0.28 20.79
43.9614 0.15 20.79
43.9998 0.28 20.92
44.0353 0.41 20.92
44.0731 0.28 21.05
44.1092 0.28 20.92
44.1424 0.28 20.92
44.1792 0.41 20.92
44.2167 0.28 21.05
44.2535 0.41 20.92
44.2907 0.28 20.92
44.3263 0.15 20.92
44.3632 0.28 20.92
44.4011 0.28 20.92
44.4378 0.41 20.92
44.4744 0.28 20.92
44.5079 0.28 20.92
44.5447 0.28 20.92
44.5810 0.28 20.92
44.6145 0.28 20.92
44.6539 0.28 20.92
44.6875 0.28 20.92
44.7251 0.28 21.05
44.7580 0.28 20.92
44.7933 0.28 21.05
44.8295 0.28 20.92
44.8682 0.28 21.05
44.9012 0.28 20.92
44.9413 0.28 20.92
44.9787 0.28 20.92
45.0155 0.28 20.92
45.0520 0.28 20.92
45.0849 0.28 20.92
45.1202 0.28 20.92
45.1578 0.28 20.92
45.1948 0.28 20.92
45.2328 0.41 20.92
45.2695 0.28 20.92
45.3063 0.28 20.92
45.3431 0.28 20.92
45.3810 0.28 21.05
45.4197 0.28 20.92
45.4558 0.28 21.05
45.4905 0.28 20.92
45.5253 0.28 20.92
45.5604 0.28 20.92
45.5960 0.28 20.92
45.6329 0.28 20.92
45.6733 0.15 20.92
45.7111 0.28 20.92
45.7464 0.28 20.92
45.7816 0.28 20.92
45.8191 0.28 21.05
45.8579 0.28 20.92
45.8952 0.28 20.79
45.9322 0.28 20.92
45.9691 0.28 20.92
46.0071 0.28 20.92
46.0428 0.41 20.92
46.0799 0.28 20.92
46.1171 0.28 20.92
46.1538 0.28 20.92
46.1887 0.28 20.92
46.2236 0.28 20.92
46.2609 0.41 20.92
46.2945 0.41 20.92
46.3298 0.28 20.92
46.3658 0.28 20.92
46.4043 0.28 20.92
46.4405 0.15 20.92
46.4761 0.28 21.05
46.5137 0.28 20.92
46.5494 0.28 20.92
46.5836 0.41 20.92
46.6217 0.28 20.92
46.6621 0.28 20.92
46.6978 0.28 20.92
46.7353 0.28 20.92
46.7775 0.28 21.05
46.8116 0.28 20.92
46.8490 0.28 20.92
46.8874 0.41 20.92
46.9230 0.28 20.92
46.9610 0.28 20.92
46.9936 0.41 20.92
47.0282 0.28 20.92
47.0632 0.41 20.79
47.0998 0.28 20.79
47.1342 0.28 20.79
47.1657 0.28 21.05
47.2044 0.28 21.05
47.2435 0.28 20.92
47.2798 0.28 21.05
47.3230 0.28 21.05
47.3574 0.41 20.92
47.3943 0.28 20.92
47.4314 0.28 20.92
47.4690 0.28 20.92
47.5050 0.28 20.92
47.5428 0.28 20.92
47.5834 0.28 21.05
47.6202 0.28 20.92
47.6656 0.41 20.92
47.7017 0.28 20.92
47.7355 0.41 20.92
47.7698 0.15 20.92
47.8051 0.28 20.92
47.8462 0.28 20.92
47.8823 0.28 20.92
47.9191 0.28 20.92
47.9564 0.28 20.92
47.9919 0.28 20.79
48.0285 0.28 20.92
48.0662 0.28 20.92
48.1030 0.28 20.92
48.1399 0.28 20.92
48.1783 0.28 20.92
48.2157 0.28 20.92
48.2497 0.41 20.92
48.2863 0.28 21.05
48.3238 0.28 20.92
48.3611 0.28 20.92
48.3983 0.28 20.92
48.4369 0.28 20.92
48.4761 0.28 20.92
48.5122 0.28 20.92
48.5493 0.15 20.92
48.5881 0.28 20.92
48.6279 0.28 21.05
48.6730 0.28 20.92
48.7093 0.28 20.92
48.7473 0.28 20.92
48.7790 0.28 20.92
48.8158 0.28 20.79
48.8524 0.28 20.92
48.8864 0.28 20.92
48.9223 0.41 20.92
48.9599 0.41 20.79
48.9947 0.28 21.05
49.0325 0.28 20.92
49.0694 0.15 20.92
49.1073 0.28 20.92
49.1421 0.28 20.92
49.1779 0.15 20.92
49.2112 0.28 20.92
49.2470 0.28 20.92
49.2865 0.28 20.92
49.3243 0.28 20.92
49.3602 0.28 20.92
49.3984 0.28 20.92
49.4320 0.28 20.92
49.4676 0.28 20.92
49.5044 0.28 20.92
49.5371 0.28 20.92
49.5750 0.15 20.92
49.6112 0.41 20.92
49.6487 0.28 21.05
49.6877 0.28 20.92
49.7244 0.28 20.92
49.7606 0.41 20.92
49.7988 0.28 20.92
49.8339 0.28 21.05
49.8689 0.28 20.79
49.9055 0.28 20.92
49.9408 0.28 20.92
49.9775 0.28 21.05
50.0100 0.28 21.05
50.0453 0.41 20.92
50.0824 0.28 20.92
50.1178 0.28 20.92
50.1559 0.28 20.92
50.1924 0.28 21.05
50.2291 0.15 20.92
50.2666 0.28 21.05
50.3031 0.41 20.92
50.3390 0.15 20.92
50.3768 0.28 20.92
50.4127 0.28 20.92
50.4509 0.28 20.92
50.4879 0.28 20.92
50.5235 0.28 20.92
50.5593 0.28 20.92
50.5937 0.28 20.92
50.6307 0.28 21.05
50.6751 0.28 20.92
50.7133 0.28 20.92
50.7494 0.28 20.92
50.7846 0.41 20.92
50.8232 0.41 21.05
50.8596 0.15 20.92
50.8963 0.28 20.92
50.9311 0.28 20.92
50.9709 0.28 20.92
51.0060 0.28 20.92
51.0437 0.28 20.92
51.0783 0.41 20.92
51.1118 0.28 21.05
51.1456 0.28 20.92
51.1816 0.28 20.92
51.2196 0.28 20.92
51.2560 0.15 21.05
51.2927 0.28 20.92
51.3271 0.15 20.92
51.3632 0.28 20.92
51.4009 0.28 20.92
51.4362 0.28 20.79
51.4776 0.28 20.92
51.5154 0.28 20.79
51.5527 0.28 20.92
51.5929 0.28 21.05
51.6284 0.28 21.05
51.6741 0.28 20.92
51.7117 0.15 20.92
51.7472 0.28 20.92
51.7817 0.28 20.92
51.8180 0.28 21.05
51.8552 0.28 20.92
51.8916 0.41 20.92
51.9283 0.28 20.92
51.9659 0.28 21.05
52.0025 0.28 20.92
52.0391 0.28 20.79
52.0766 0.15 20.92
52.1119 0.28 20.92
52.1498 0.28 20.79
52.1865 0.28 20.92
52.2225 0.41 21.05
52.2565 0.28 20.92
52.2915 0.28 20.92
52.3264 0.28 21.05
52.3631 0.28 20.92
52.3958 0.28 20.92
52.4335 0.28 20.92
52.4679 0.28 21.05
52.5058 0.28 21.05
52.5435 0.28 20.92
52.5808 0.41 20.92
52.6136 0.28 20.79
52.6538 0.28 20.92
52.6907 0.28 20.92
52.7268 0.41 20.92
52.7661 0.28 20.92
52.8023 0.28 21.05
52.8423 0.28 20.92
52.8796 0.28 20.92
52.9154 0.28 21.05
52.9546 0.41 20.92
52.9948 0.28 20.92
53.0347 0.41 20.92
53.0712 0.28 20.92
53.1072 0.28 20.92
53.1461 0.28 20.79
53.1820 0.28 20.92
53.2192 0.28 20.79
53.2568 0.28 20.92
53.2908 0.41 20.92
53.3253 0.28 20.92
53.3610 0.28 20.92
53.3980 0.28 20.92
53.4347 0.41 20.92
53.4715 0.28 20.92
53.5082 0.28 20.92
53.5458 0.28 20.92
53.5806 0.28 20.92
53.6142 0.28 21.05
53.6549 0.28 20.92
53.6922 0.28 20.92
53.7270 0.28 20.92
53.7595 0.28 20.92
53.7973 0.28 20.92
53.8291 0.28 20.92
53.8650 0.28 20.92
53.9018 0.28 20.92
53.9444 0.28 20.92
53.9804 0.28 20.92
54.0177 0.28 20.92
54.0547 0.41 20.92
54.0901 0.28 20.92
54.1277 0.41 20.92
54.1640 0.28 21.05
54.2017 0.41 20.92
54.2391 0.28 20.79
54.2745 0.28 20.92
54.3120 0.28 20.92
54.3459 0.41 20.92
54.3833 0.28 20.92
54.4202 0.28 20.92
54.4550 0.28 20.92
54.4925 0.41 20.92
54.5294 0.28 20.92
54.5673 0.28 20.92
54.6027 0.41 20.92
54.6413 0.28 20.92
54.6856 0.28 20.92
54.7224 0.28 20.92
54.7575 0.28 20.92
54.7924 0.15 20.92
54.8243 0.28 20.92
54.8650 0.28 20.92
54.9030 0.28 20.92
54.9386 0.28 20.92
54.9757 0.28 20.92
55.0108 0.28 20.92
55.0456 0.28 20.92
55.0829 0.41 20.92
55.1182 0.28 20.79
55.1608 0.28 20.92
55.1977 0.28 20.92
55.2313 0.41 20.92
55.2704 0.28 20.92
55.3077 0.28 20.92
55.3480 0.28 20.92
55.3859 0.41 20.92
55.4212 0.28 20.92
55.4621 0.28 20.92
55.5000 0.28 20.92
55.5354 0.28 20.92
55.5712 0.28 20.92
55.6054 0.28 20.92
55.6442 0.28 20.92
55.6872 0.28 20.92
time[sec] Pin[KPa] Pout[KPa]
06 24 19 16:15:47
0.1170 0.28 0.41
0.2080 0.67 0.54
0.2580 1.83 0.41
0.2999 2.61 0.41
0.3366 3.25 0.41
0.3837 4.02 0.41
0.4200 4.80 0.41
0.4610 5.44 0.54
0.4995 5.96 0.54
0.5373 6.47 0.54
0.5755 7.25 0.41
0.6114 7.89 0.54
0.6492 8.41 0.41
0.6869 8.92 0.54
0.7213 9.31 0.54
0.7586 9.83 0.54
0.7965 10.34 0.54
0.8326 10.86 0.41
0.8685 11.25 0.41
0.9066 11.63 0.54
0.9436 12.28 0.41
0.9813 12.66 0.54
1.0191 13.05 0.54
1.0586 13.57 0.54
1.0945 13.95 0.54
1.1315 14.21 0.41
1.1701 14.60 0.41
1.2062 14.99 0.41
1.2444 15.37 0.41
1.2948 15.76 0.41
1.3316 16.02 0.41
1.3690 16.53 0.41
1.4066 16.79 0.41
1.4441 17.18 0.41
1.4818 17.44 0.41
1.5178 17.69 0.41
1.5546 17.95 0.41
1.5922 18.21 0.41
1.6269 18.47 0.41
1.6649 18.60 0.41
1.7056 18.85 0.41
1.7421 19.11 0.41
1.7801 19.37 0.41
1.8143 19.63 0.41
1.8540 19.76 0.54
1.8888 20.01 0.54
1.9250 20.27 0.54
1.9645 20.53 0.54
2.0049 20.66 0.54
2.0429 20.79 0.54
2.0836 21.05 0.41
2.1243 21.18 0.41
2.1613 21.30 0.41
2.1974 21.56 0.41
2.2349 21.56 0.41
2.2862 21.82 0.41
2.3241 21.95 0.41
2.3602 22.21 0.41
2.3979 22.21 0.41
2.4354 22.46 0.41
2.4702 22.46 0.41
2.5133 22.59 0.54
2.5514 22.72 0.54
2.5896 22.85 0.54
2.6261 22.85 0.41
2.6650 22.98 0.54
2.7009 23.11 0.54
2.7370 23.11 0.41
2.7740 23.24 0.54
2.8110 23.37 0.54
2.8482 23.37 0.54
2.8852 23.50 0.54
2.9218 23.63 0.54
2.9586 23.63 0.54
2.9962 23.75 0.54
3.0341 23.75 0.41
3.0687 23.88 0.54
3.1069 23.88 0.41
3.1423 23.88 0.41
3.1805 24.01 0.41
3.2177 24.01 0.41
3.2592 24.14 0.41
3.2976 24.14 0.41
3.3361 24.27 0.41
3.3735 24.27 0.54
3.4101 24.27 0.41
3.4451 24.40 0.41
3.4830 24.40 0.41
3.5212 24.53 0.41
3.5559 24.53 0.54
3.5894 24.53 0.54
3.6267 24.53 0.41
3.6636 24.53 0.41
3.7005 24.53 0.41
3.7370 24.66 0.41
3.7701 24.53 0.54
3.8116 24.79 0.41
3.8480 24.66 0.54
3.8858 24.66 0.41
3.9201 24.66 0.41
3.9570 24.79 0.41
3.9947 24.79 0.41
4.0316 24.79 0.41
4.0683 24.79 0.41
4.1057 24.92 0.41
4.1423 24.79 0.54
4.1776 24.92 0.41
4.2146 24.92 0.54
4.2543 25.04 0.54
4.2942 24.92 0.41
4.3315 24.92 0.41
4.3725 25.04 0.54
4.4098 24.92 0.41
4.4450 25.04 0.41
4.4791 25.04 0.41
4.5146 25.04 0.41
4.5507 25.04 0.54
4.5886 25.04 0.41
4.6251 25.04 0.54
4.6638 25.17 0.41
4.7000 25.04 0.54
4.7367 25.17 0.54
4.7693 25.17 0.41
4.8026 25.04 0.54
4.8402 25.17 0.41
4.8793 25.17 0.41
4.9171 25.17 0.54
4.9527 25.17 0.41
4.9900 25.17 0.54
5.0265 25.17 0.54
5.0654 25.17 0.54
5.1011 25.17 0.54
5.1374 25.17 0.54
5.1748 25.17 0.41
5.2139 25.30 0.54
5.2550 25.17 0.41
5.2930 25.17 0.54
5.3303 25.17 0.54
5.3674 25.30 0.54
5.4038 25.30 0.41
5.4406 25.30 0.41
5.4780 25.30 0.41
5.5138 25.17 0.28
5.5508 25.30 0.41
5.5872 25.17 0.54
5.6205 25.30 0.54
5.6583 25.30 0.41
5.6936 25.30 0.54
5.7281 25.30 0.41
5.7606 25.30 0.41
5.7957 25.30 0.41
5.8321 25.30 0.41
5.8667 25.30 0.54
5.9042 25.43 0.54
5.9393 25.30 0.41
5.9784 25.30 0.54
6.0150 25.30 0.54
6.0725 25.43 0.54
6.1344 25.30 0.41
6.1819 25.30 0.41
6.2242 25.30 0.41
6.2673 25.43 0.41
6.3078 25.30 0.41
6.3466 25.30 0.41
6.3876 25.30 0.54
6.4289 25.30 0.41
6.4651 25.30 0.41
6.5030 25.30 0.54
6.5392 25.30 0.54
6.5796 25.43 0.41
6.6170 25.43 0.54
6.6534 25.43 0.41
6.6909 25.43 0.54
6.7275 25.43 0.41
6.7640 25.30 0.54
6.7972 25.30 0.41
6.8298 25.43 0.41
6.8672 25.30 0.54
6.8994 25.43 0.54
6.9360 25.43 0.54
6.9728 25.43 0.67
7.0065 25.43 0.54
7.0423 25.43 0.54
7.0840 25.43 0.41
7.1207 25.30 0.41
7.1575 25.43 0.54
7.1941 25.43 0.54
7.2304 25.30 0.41
7.2768 25.30 0.54
7.3115 25.30 0.54
7.3485 25.43 0.41
7.3859 25.43 0.41
7.4228 25.43 0.28
7.4602 25.43 0.41
7.4978 25.43 0.41
7.5344 25.43 0.41
7.5702 25.56 0.54
7.6076 25.43 0.41
7.6428 25.43 0.67
7.6800 25.43 0.54
7.7182 25.43 0.54
7.7519 25.43 0.54
7.7866 25.43 0.41
7.8226 25.43 0.41
7.8575 25.43 0.41
7.8977 25.43 0.54
7.9351 25.43 0.54
7.9724 25.43 0.54
8.0082 25.56 0.41
8.0513 25.43 0.54
8.0869 25.56 0.41
8.1243 25.43 0.28
8.1584 25.43 0.28
8.1970 25.43 0.54
8.2342 25.43 0.41
8.2789 25.56 0.41
8.3164 25.43 0.41
8.3523 25.30 0.41
8.3902 25.43 0.41
8.4276 25.43 0.41
8.4621 25.43 0.41
8.5003 25.43 0.54
8.5373 25.43 0.41
8.5736 25.56 0.54
8.6115 25.56 0.54
8.6474 25.43 0.54
8.6859 25.56 0.54
8.7179 25.56 0.28
8.7542 25.56 0.54
8.7915 25.43 0.54
8.8271 25.43 0.41
8.8654 25.43 0.67
8.9000 25.43 0.41
8.9351 25.43 0.41
8.9716 25.43 0.54
9.0065 25.43 0.54
9.0408 25.43 0.41
9.0777 25.43 0.54
9.1159 25.69 0.41
9.1519 25.56 0.41
9.1888 25.56 0.41
9.2246 25.43 0.41
9.2693 25.56 0.54
9.3079 25.56 0.41
9.3433 25.56 0.54
9.3809 25.56 0.41
9.4180 25.69 0.54
9.4554 25.43 0.54
9.4927 25.56 0.41
9.5272 25.56 0.41
9.5656 25.43 0.41
9.6039 25.56 0.54
9.6391 25.56 0.41
9.6745 25.56 0.54
9.7135 25.56 0.41
9.7495 25.56 0.41
9.7875 25.56 0.41
9.8203 25.43 0.41
9.8545 25.56 0.41
9.8893 25.56 0.41
9.9253 25.56 0.41
9.9629 25.56 0.41
9.9976 25.56 0.41
10.0333 25.56 0.41
10.0697 25.56 0.41
10.1019 25.56 0.41
10.1367 25.56 0.41
10.1715 25.56 0.54
10.2065 25.56 0.41
10.2428 25.56 0.41
10.2850 25.56 0.41
10.3233 25.56 0.54
10.3606 25.56 0.41
10.3969 25.56 0.41
10.4340 25.43 0.54
10.4709 25.56 0.54
10.5055 25.56 0.54
10.5410 25.43 0.54
10.5759 25.56 0.54
10.6126 25.56 0.54
10.6496 25.56 0.54
10.6885 25.56 0.54
10.7210 25.56 0.54
10.7561 25.56 0.54
10.7956 25.56 0.54
10.8308 25.56 0.54
10.8669 25.56 0.54
10.9034 25.43 0.67
10.9410 25.56 0.54
10.9775 25.56 0.41
11.0155 25.69 0.41
11.0575 25.43 0.54
11.0934 25.56 0.54
11.1260 25.56 0.54
11.1637 25.56 0.41
11.1991 25.56 0.54
11.2373 25.56 0.41
11.2769 25.56 0.54
11.3143 25.56 0.54
11.3497 25.69 0.41
11.3964 25.56 0.41
11.4331 25.56 0.54
11.4686 25.56 0.41
11.5067 25.69 0.54
11.5448 25.56 0.41
11.5813 25.69 0.54
11.6209 25.56 0.54
11.6590 25.56 0.41
11.6931 25.56 0.54
11.7329 25.56 0.41
11.7697 25.56 0.41
11.8093 25.56 0.41
11.8473 25.56 0.54
11.8820 25.56 0.41
11.9200 25.56 0.41
11.9568 25.56 0.54
11.9948 25.56 0.41
12.0293 25.56 0.28
12.0669 25.69 0.41
12.1044 25.56 0.41
12.1415 25.69 0.41
12.1785 25.56 0.54
12.2156 25.69 0.54
12.2584 25.56 0.41
12.2979 25.69 0.41
12.3342 25.56 0.41
12.3711 25.69 0.41
12.4084 25.56 0.54
12.4432 25.69 0.41
12.4816 25.56 0.54
12.5147 25.69 0.41
12.5498 25.56 0.54
12.5905 25.56 0.54
12.6284 25.69 0.41
12.6648 25.69 0.41
12.7021 25.69 0.41
12.7407 25.69 0.54
12.7753 25.56 0.54
12.8141 25.69 0.54
12.8497 25.56 0.54
12.8873 25.69 0.54
12.9244 25.69 0.41
12.9605 25.56 0.54
12.9990 25.56 0.41
13.0341 25.56 0.41
13.0753 25.56 0.54
13.1134 25.56 0.41
13.1480 25.56 0.54
13.1821 25.69 0.54
13.2188 25.56 0.41
13.2592 25.56 0.41
13.2959 25.56 0.41
13.3328 25.69 0.54
13.3706 25.69 0.41
13.4075 25.69 0.41
13.4440 25.69 0.41
13.4810 25.56 0.41
13.5183 25.69 0.41
13.5533 25.69 0.54
13.5919 25.69 0.41
13.6287 25.69 0.41
13.6644 25.69 0.41
13.7026 25.56 0.54
13.7389 25.82 0.41
13.7759 25.69 0.54
13.8143 25.69 0.54
13.8535 25.56 0.41
13.8914 25.69 0.54
13.9315 25.69 0.54
13.9684 25.56 0.54
14.0070 25.56 0.41
14.0427 25.69 0.54
14.0771 25.69 0.41
14.1128 25.69 0.41
14.1454 25.69 0.41
14.1825 25.69 0.54
14.2173 25.69 0.54
14.2614 25.82 0.41
14.2999 25.69 0.54
14.3374 25.69 0.41
14.3721 25.69 0.54
14.4068 25.69 0.54
14.4420 25.82 0.54
14.4763 25.69 0.54
14.5141 25.69 0.54
14.5467 25.69 0.41
14.5819 25.69 0.54
14.6201 25.69 0.54
14.6569 25.69 0.41
14.6928 25.69 0.54
14.7300 25.69 0.41
14.7690 25.69 0.41
14.8076 25.69 0.54
14.8454 25.69 0.41
14.8825 25.69 0.54
14.9161 25.69 0.54
14.9476 25.69 0.54
14.9828 25.69 0.54
15.0212 25.69 0.54
15.0578 25.69 0.41
15.0935 25.69 0.41
15.1308 25.69 0.54
15.1689 25.69 0.54
15.2054 25.69 0.41
15.2412 25.69 0.54
15.2831 25.69 0.54
15.3185 25.69 0.54
15.3573 25.69 0.41
15.3941 25.69 0.41
15.4323 25.69 0.54
15.4670 25.69 0.54
15.5053 25.69 0.41
15.5375 25.69 0.54
15.5737 25.69 0.54
15.6096 25.69 0.41
15.6480 25.69 0.54
15.6808 25.69 0.54
15.7169 25.69 0.54
15.7535 25.69 0.54
15.7909 25.69 0.54
15.8281 25.69 0.41
15.8627 25.69 0.54
15.8975 25.82 0.54
15.9392 25.69 0.41
15.9746 25.69 0.41
16.0123 25.69 0.41
16.0502 25.69 0.41
16.0862 25.69 0.54
16.1216 25.69 0.54
16.1581 25.69 0.41
16.1962 25.69 0.54
16.2328 25.69 0.54
16.2768 25.69 0.54
16.3147 25.82 0.41
16.3521 25.69 0.54
16.3882 25.82 0.41
16.4259 25.69 0.41
16.4634 25.82 0.41
16.4965 25.69 0.41
16.5322 25.69 0.41
16.5696 25.82 0.54
16.6104 25.69 0.41
16.6479 25.69 0.15
16.6835 25.82 0.54
16.7210 25.82 0.54
16.7580 25.69 0.54
16.7942 25.82 0.41
16.8313 25.69 0.41
16.8644 25.69 0.54
16.9046 25.69 0.54
16.9413 25.69 0.54
16.9791 25.82 0.41
17.0156 25.69 0.54
17.0522 25.69 0.41
17.0887 25.69 0.54
17.1263 25.69 0.54
17.1633 25.82 0.41
17.1983 25.82 0.54
17.2327 25.69 0.54
17.2769 25.69 0.54
17.3141 25.69 0.67
17.3509 25.82 0.41
17.3878 25.69 0.54
17.4259 25.82 0.41
17.4586 25.82 0.67
17.4935 25.82 0.54
17.5308 25.82 0.54
17.5695 25.82 0.54
17.6089 25.82 0.54
17.6466 25.82 0.54
17.6833 25.69 0.41
17.7164 25.82 0.54
17.7510 25.69 0.41
17.7917 25.69 0.54
17.8267 25.82 0.54
17.8640 25.82 0.54
17.8996 25.82 0.41
17.9334 25.69 0.54
17.9706 25.82 0.41
18.0066 25.82 0.41
18.0419 25.69 0.41
18.0804 25.82 0.41
18.1161 25.82 0.54
18.1540 25.82 0.67
18.1907 25.82 0.54
18.2274 25.82 0.54
18.2774 25.69 0.54
18.3135 25.82 0.54
18.3515 25.82 0.67
18.3867 25.82 0.54
18.4250 25.82 0.41
18.4624 25.82 0.41
18.4983 25.69 0.41
18.5354 25.82 0.54
18.5678 25.82 0.54
18.6047 25.82 0.41
18.6422 25.82 0.54
18.6777 25.82 0.41
18.7149 25.82 0.54
18.7523 25.82 0.54
18.7892 25.82 0.54
18.8255 25.69 0.41
18.8633 25.82 0.67
18.9007 25.69 0.54
18.9373 25.82 0.54
18.9732 25.82 0.41
19.0141 25.82 0.54
19.0511 25.82 0.54
19.0893 25.82 0.54
19.1243 25.82 0.41
19.1619 25.82 0.67
19.1991 25.82 0.41
19.2359 25.82 0.54
19.2812 25.95 0.54
19.3169 25.82 0.54
19.3501 25.82 0.41
19.3888 25.82 0.54
19.4257 25.82 0.54
19.4606 25.82 0.41
19.4970 25.82 0.41
19.5348 25.82 0.41
19.5722 25.82 0.54
19.6075 25.82 0.54
19.6465 25.82 0.41
19.6829 25.82 0.54
19.7151 25.82 0.54
19.7517 25.95 0.54
19.7885 25.82 0.41
19.8233 25.82 0.41
19.8585 25.82 0.54
19.8948 25.82 0.41
19.9284 25.82 0.28
19.9609 25.82 0.54
19.9941 25.82 0.41
20.0282 25.82 0.54
20.0627 25.82 0.54
20.0989 25.82 0.54
20.1364 25.82 0.54
20.1736 25.82 0.41
20.2106 25.82 0.41
20.2519 25.82 0.54
20.2969 25.82 0.28
20.3324 25.82 0.41
20.3707 25.82 0.41
20.4070 25.82 0.41
20.4435 25.82 0.41
20.4843 25.82 0.54
20.5218 25.82 0.41
20.5542 25.95 0.41
20.5921 25.82 0.54
20.6248 25.82 0.41
20.6614 25.82 0.54
20.6936 25.82 0.54
20.7292 25.82 0.54
20.7674 25.82 0.41
20.8041 25.82 0.67
20.8411 25.82 0.41
20.8746 25.82 0.54
20.9095 25.69 0.54
20.9468 25.82 0.54
20.9847 25.82 0.54
21.0213 25.82 0.41
21.0584 25.82 0.41
21.0935 25.82 0.41
21.1315 25.82 0.54
21.1677 25.82 0.54
21.2046 25.95 0.41
21.2440 25.95 0.54
21.2880 25.82 0.41
21.3246 25.82 0.41
21.3608 25.82 0.41
21.3980 25.95 0.41
21.4353 25.82 0.41
21.4713 25.82 0.54
21.5049 25.82 0.54
21.5417 25.82 0.41
21.5731 25.82 0.54
21.6077 25.82 0.41
21.6398 25.82 0.41
21.6728 25.82 0.54
21.7100 25.82 0.54
21.7467 25.82 0.41
21.7827 25.82 0.41
21.8202 25.95 0.41
21.8526 25.82 0.54
21.8892 25.82 0.41
21.9248 25.95 0.54
21.9592 25.82 0.41
21.9965 25.82 0.54
22.0336 25.82 0.54
22.0704 25.82 0.54
22.1049 25.82 0.54
22.1404 25.95 0.54
22.1725 25.82 0.54
22.2072 26.08 0.54
22.2410 25.95 0.41
22.2835 25.82 0.54
22.3181 25.82 0.54
22.3528 25.95 0.54
22.3897 25.82 0.54
22.4223 25.82 0.41
22.4600 25.82 0.54
22.4957 25.82 0.54
22.5305 25.82 0.54
22.5710 25.95 0.41
22.6053 25.82 0.41
22.6426 25.95 0.54
22.6801 25.82 0.54
22.7168 25.95 0.54
22.7533 25.82 0.54
22.7914 25.82 0.54
22.8252 25.82 0.41
22.8603 25.82 0.54
22.8966 25.82 0.41
22.9302 25.82 0.54
22.9668 25.82 0.54
23.0038 25.82 0.41
23.0405 25.82 0.41
23.0769 25.82 0.54
23.1145 25.82 0.03
23.1509 25.82 0.54
23.1834 25.82 0.41
23.2216 25.82 0.54
23.2626 25.82 0.54
23.3014 25.82 0.54
23.3389 25.82 0.54
23.3763 25.69 0.41
23.4134 25.82 0.54
23.4461 25.82 0.41
23.4840 25.82 0.54
23.5207 25.95 0.54
23.5553 25.82 0.54
23.5926 25.82 0.41
23.6299 25.82 0.54
23.6660 25.69 0.41
23.7029 25.82 0.54
23.7406 25.82 0.54
23.7779 25.82 0.54
23.8141 25.82 0.28
23.8502 25.82 0.54
23.8892 25.95 0.41
23.9251 25.69 0.41
23.9584 25.82 0.54
24.0009 25.82 0.41
24.0387 25.82 0.54
24.0758 25.82 0.54
24.1127 25.82 0.41
24.1505 25.95 0.54
24.1879 25.82 0.54
24.2242 25.82 0.41
24.2662 25.82 0.41
24.3023 25.82 0.41
24.3396 25.82 0.41
24.3751 25.82 0.54
24.4092 25.69 0.54
24.4460 25.69 0.54
24.4811 25.69 0.41
24.5151 25.69 0.54
24.5523 25.69 0.41
24.5852 25.69 0.54
24.6198 25.82 0.54
24.6531 25.69 0.67
24.6913 25.69 0.54
24.7257 25.69 0.54
24.7612 25.69 0.28
24.7974 25.69 0.54
24.8307 25.69 0.54
24.8662 25.56 0.54
24.9029 25.69 0.54
24.9411 25.69 0.41
24.9736 25.82 0.54
25.0096 25.82 0.41
25.0436 25.69 0.41
25.0805 25.69 0.54
25.1159 25.69 0.54
25.1499 25.69 0.67
25.1854 25.69 0.54
25.2233 25.69 0.41
25.2640 25.69 0.41
25.3020 25.69 0.54
25.3389 25.69 0.54
25.3738 25.69 0.41
25.4117 25.69 0.54
25.4489 25.69 0.54
25.4839 25.69 0.41
25.5170 25.69 0.41
25.5539 25.69 0.15
25.5914 25.56 0.41
25.6270 25.69 0.54
25.6635 25.56 0.54
25.6986 25.69 0.54
25.7361 25.56 0.54
25.7730 25.56 0.41
25.8128 25.56 0.41
25.8500 25.56 0.41
25.8872 25.56 0.54
25.9257 25.56 0.28
25.9603 25.56 0.41
25.9968 25.56 0.54
26.0362 25.56 0.54
26.0723 25.56 0.54
26.1086 25.56 0.54
26.1448 25.56 0.54
26.1822 25.56 0.54
26.2185 25.69 0.54
26.2627 25.56 0.41
26.2987 25.56 0.54
26.3337 25.56 0.41
26.3710 25.56 0.41
26.4063 25.56 0.41
26.4399 25.56 0.54
26.4777 25.56 0.41
26.5103 25.56 0.41
26.5469 25.56 0.54
26.5831 25.56 0.41
26.6205 25.56 0.41
26.6566 25.43 0.41
26.6943 25.43 0.41
26.7314 25.56 0.41
26.7678 25.56 0.41
26.8032 25.56 0.93
26.8421 25.56 0.54
26.8771 25.56 0.54
26.9166 25.56 0.54
26.9527 25.43 0.54
26.9886 25.56 0.41
27.0249 25.43 0.54
27.0627 25.43 0.54
27.0995 25.43 0.54
27.1342 25.43 0.54
27.1713 25.56 0.54
27.2067 25.56 0.54
27.2400 25.43 0.67
27.2839 25.56 0.54
27.3214 25.43 0.54
27.3556 25.56 0.41
27.3941 25.56 0.41
27.4315 25.56 0.54
27.4681 25.56 0.54
27.5014 25.43 0.54
27.5380 25.43 0.54
27.5726 25.43 0.41
27.6085 25.43 0.41
27.6446 25.43 0.54
27.6815 25.56 0.41
27.7139 25.56 0.41
27.7469 25.43 0.54
27.7819 25.56 0.54
27.8208 25.43 0.41
27.8571 25.56 0.54
27.8950 25.56 0.54
27.9308 25.43 0.54
27.9675 25.43 0.41
28.0057 25.43 0.54
28.0409 25.43 0.54
28.0777 25.43 0.41
28.1146 25.43 0.54
28.1521 25.43 0.54
28.1894 25.43 0.54
28.2223 25.43 0.54
28.2646 25.43 0.41
28.2984 25.43 0.54
28.3360 25.43 0.54
28.3718 25.43 0.41
28.4059 25.43 0.54
28.4411 25.43 0.54
28.4757 25.43 0.54
28.5110 25.43 0.54
28.5485 25.43 0.54
28.5863 25.43 0.54
28.6236 25.43 0.41
28.6602 25.43 0.41
28.6952 25.43 0.41
28.7327 25.43 0.41
28.7710 25.43 0.54
28.8072 25.43 0.54
28.8435 25.43 0.54
28.8808 25.43 0.54
28.9184 25.43 0.41
28.9552 25.43 0.41
28.9875 25.43 0.41
29.0252 25.43 0.54
29.0573 25.43 0.54
29.0939 25.43 0.41
29.1318 25.43 0.54
29.1684 25.43 0.54
29.2050 25.43 0.54
29.2435 25.43 0.54
29.2886 25.43 0.54
29.3271 25.43 0.41
29.3651 25.43 0.41
29.4017 25.43 0.41
29.4384 25.43 0.41
29.4752 25.56 0.54
29.5106 25.56 0.54
29.5485 25.43 0.54
29.5862 25.43 0.41
29.6221 25.43 0.54
29.6597 25.43 0.54
29.6947 25.43 0.54
29.7327 25.30 0.54
29.7698 25.43 0.41
29.8050 25.43 0.54
29.8383 25.43 0.54
29.8715 25.43 0.54
29.9090 25.43 0.54
29.9479 25.43 0.41
29.9789 25.43 0.54
30.0166 25.43 0.54
30.0509 25.56 0.41
30.0899 24.66 0.41
30.1259 23.75 0.54
30.1629 22.98 0.54
30.2000 22.34 0.54
30.2355 21.69 0.54
30.2803 21.05 0.54
30.3154 20.66 0.54
30.3522 20.01 0.54
30.3871 19.63 0.54
30.4240 18.98 0.54
30.4633 18.47 0.54
30.5032 17.82 0.41
30.5385 17.44 0.41
30.5775 16.79 0.54
30.6141 16.27 0.54
30.6500 15.89 0.54
30.6862 15.24 0.54
30.7245 14.86 0.54
30.7608 14.34 0.54
30.7965 13.82 0.54
30.8338 13.31 0.67
30.8726 12.92 0.67
30.9084 12.41 1.06
30.9454 12.02 4.80
30.9822 11.76 7.76
31.0177 11.37 8.15
31.0564 11.12 8.15
31.0920 10.73 8.15
31.1304 10.34 8.28
31.1664 9.96 8.28
31.2053 9.57 8.41
31.2450 9.18 8.28
31.2855 8.92 8.41
31.3219 8.54 8.41
31.3599 8.15 8.54
31.3960 7.89 8.41
31.4333 7.51 8.41
31.4682 7.25 8.54
31.5060 6.86 8.54
31.5435 6.60 8.54
31.5809 6.34 8.67
31.6170 6.09 8.67
31.6538 5.96 8.67
31.6897 5.44 8.80
31.7274 5.31 8.80
31.7692 5.18 8.92
31.8055 4.80 8.92
31.8419 4.67 9.05
31.8840 4.41 9.31
31.9190 4.15 9.31
31.9533 4.02 9.44
31.9885 3.89 9.44
32.0258 3.64 9.57
32.0634 3.51 9.70
32.1007 3.25 9.70
32.1380 3.12 9.83
32.1756 2.99 9.83
32.2153 2.73 9.96
32.2565 2.73 9.96
32.2971 2.61 10.08
32.3323 2.35 10.21
32.3708 2.22 10.21
32.4064 2.22 10.34
32.4411 2.09 10.47
32.4763 1.96 10.47
32.5136 1.96 10.47
32.5505 1.83 10.60
32.5857 1.70 10.60
32.6185 1.57 10.73
32.6544 1.57 10.73
32.6930 1.57 10.86
32.7323 1.44 10.99
32.7642 1.32 10.99
32.7992 1.32 11.12
32.8370 1.19 11.12
32.8741 1.19 11.12
32.9118 1.19 11.25
32.9493 1.06 11.37
32.9821 1.19 11.37
33.0186 1.06 11.50
33.0556 0.93 11.50
33.0910 0.93 11.63
33.1291 0.93 11.63
33.1662 0.80 11.76
33.1981 0.67 11.89
33.2367 0.80 11.89
33.2792 0.80 12.02
33.3177 0.80 12.02
33.3537 0.67 12.02
33.3884 0.67 12.15
33.4218 0.67 12.28
33.4561 0.54 12.28
33.4979 0.54 12.54
33.5361 0.54 12.41
33.5709 0.54 12.54
33.6078 0.54 12.66
33.6400 0.54 12.79
33.6766 0.54 12.79
33.7148 0.54 12.79
33.7551 0.54 13.05
33.7914 0.54 12.92
33.8287 0.54 12.92
33.8661 0.41 13.05
33.9011 0.41 13.05
33.9396 0.41 13.18
33.9767 0.41 13.31
34.0116 0.28 13.57
34.0511 0.28 13.44
34.0853 0.41 13.57
34.1232 0.41 13.70
34.1603 0.54 13.70
34.1975 0.41 13.82
34.2363 0.28 13.82
34.2773 0.41 13.95
34.3126 0.41 13.95
34.3491 0.41 13.95
34.3858 0.41 14.08
34.4227 0.41 14.21
34.4556 0.41 14.21
34.4934 0.28 14.21
34.5295 0.41 14.47
34.5656 0.28 14.47
34.5990 0.28 14.47
34.6319 0.41 14.60
34.6671 0.41 14.60
34.7052 0.28 14.60
34.7409 0.41 14.73
34.7798 0.41 14.73
34.8162 0.28 14.86
34.8532 0.28 14.86
34.8877 0.41 14.99
34.9203 0.28 14.99
34.9537 0.28 15.11
34.9913 0.41 15.11
35.0280 0.41 15.24
35.0663 0.41 15.24
35.1025 0.28 15.37
35.1356 0.28 15.37
35.1703 0.28 15.50
35.2051 0.41 15.37
35.2410 0.28 15.50
35.2824 0.28 15.63
35.3203 0.28 15.63
35.3527 0.28 15.76
35.3905 0.28 15.76
35.4221 0.41 15.76
35.4597 0.28 15.89
35.4937 0.41 15.89
35.5291 0.28 16.02
35.5634 0.41 16.15
35.5960 0.28 16.27
35.6321 0.28 16.27
35.6659 0.41 16.27
35.7013 0.28 16.40
35.7338 0.28 16.40
35.7686 0.28 16.40
35.8029 0.28 16.53
35.8383 0.41 16.53
35.8734 0.41 16.53
35.9096 0.28 16.66
35.9459 0.41 16.66
35.9832 0.28 16.66
36.0202 0.28 16.79
36.0633 0.28 16.92
36.1021 0.28 16.92
36.1396 0.28 17.05
36.1763 0.28 17.05
36.2121 0.28 17.18
36.2531 0.28 17.18
36.2906 0.28 17.31
36.3269 0.15 17.31
36.3650 0.41 17.31
36.4005 0.41 17.31
36.4367 0.28 17.44
36.4740 0.28 17.44
36.5125 0.28 17.56
36.5451 0.28 17.56
36.5807 0.28 17.56
36.6186 0.41 17.69
36.6532 0.28 17.69
36.6906 0.41 17.82
36.7294 0.28 17.82
36.7655 0.28 17.95
36.8003 0.28 17.95
36.8354 0.15 17.95
36.8692 0.41 17.95
36.9043 0.28 18.08
36.9414 0.41 18.08
36.9763 0.28 18.08
37.0112 0.28 18.08
37.0489 0.28 18.21
37.0849 0.28 18.21
37.1206 0.28 18.21
37.1581 0.28 18.34
37.1959 0.28 18.34
37.2314 0.28 18.47
37.2768 0.28 18.47
37.3143 0.28 18.47
37.3508 0.28 18.60
37.3883 0.28 18.73
37.4249 0.28 18.73
37.4608 0.28 18.73
37.4979 0.28 18.73
37.5360 0.28 18.73
37.5727 0.41 18.73
37.6127 0.28 18.85
37.6500 0.28 18.85
37.6865 0.28 18.98
37.7234 0.28 18.98
37.7608 0.41 19.11
37.7975 0.28 19.11
37.8352 0.28 19.11
37.8714 0.41 19.11
37.9088 0.28 19.11
37.9426 0.28 19.24
37.9759 0.28 19.24
38.0090 0.28 19.24
38.0426 0.28 19.24
38.0804 0.28 19.37
38.1177 0.28 19.37
38.1494 0.28 19.37
38.1875 0.28 19.50
38.2240 0.28 19.50
38.2680 0.41 19.50
38.3059 0.28 19.37
38.3433 0.41 19.50
38.3789 0.41 19.63
38.4153 0.28 19.63
38.4545 0.28 19.63
38.4930 0.28 19.63
38.5307 0.41 19.63
38.5675 0.28 19.76
38.6052 0.28 19.76
38.6392 0.28 19.76
38.6747 0.28 19.89
38.7111 0.28 19.76
38.7479 0.28 19.89
38.7848 0.28 19.89
38.8221 0.28 19.89
38.8583 0.28 20.01
38.8964 0.28 19.89
38.9316 0.28 20.01
38.9704 0.03 20.01
39.0016 0.28 20.01
39.0392 0.28 20.01
39.0762 0.28 20.01
39.1158 0.28 20.14
39.1541 0.28 20.14
39.1908 0.41 20.14
39.2270 0.41 20.14
39.2688 0.28 20.27
39.3028 0.28 20.27
39.3378 0.41 20.27
39.3715 0.28 20.27
39.4059 0.41 20.27
39.4433 0.41 20.27
39.4806 0.28 20.40
39.5171 0.28 20.27
39.5542 0.28 20.40
39.5901 0.28 20.40
39.6275 0.41 20.40
39.6611 0.28 20.40
39.6973 0.28 20.40
39.7330 0.28 20.40
39.7677 0.28 20.53
39.8076 0.28 20.53
39.8444 0.41 20.53
39.8830 0.28 20.53
39.9206 0.28 20.66
39.9551 0.41 20.53
39.9892 0.28 20.53
40.0218 0.28 20.53
40.0605 0.41 20.53
40.0982 0.41 20.66
40.1365 0.41 20.66
40.1691 0.28 20.66
40.2076 0.28 20.66
40.2416 0.28 20.66
40.2845 0.41 20.66
40.3189 0.28 20.66
40.3513 0.28 20.66
40.3866 0.41 20.66
40.4212 0.28 20.79
40.4525 0.28 20.66
40.4872 0.28 20.79
40.5242 0.28 20.66
40.5620 0.28 20.79
40.5996 0.28 20.66
40.6359 0.28 20.79
40.6724 0.28 20.79
40.7060 0.28 20.66
40.7436 0.28 20.79
40.7787 0.41 20.92
40.8162 0.28 20.92
40.8538 0.28 20.92
40.8891 0.28 20.92
40.9275 0.28 20.92
40.9637 0.41 20.92
40.9990 0.28 20.92
41.0325 0.28 20.79
41.0701 0.28 20.92
41.1064 0.15 20.92
41.1453 0.41 20.92
41.1821 0.28 20.92
41.2177 0.41 20.92
41.2564 0.28 20.92
41.2952 0.28 21.05
41.3324 0.28 20.92
41.3695 0.28 20.92
41.4057 0.28 20.92
41.4430 0.41 20.92
41.4808 0.41 20.92
41.5157 0.28 20.92
41.5528 0.28 20.92
41.5901 0.28 21.05
41.6265 0.28 20.92
41.6649 0.28 21.05
41.7046 0.28 21.05
41.7419 0.28 20.92
41.7790 0.28 20.92
41.8167 0.28 20.92
41.8521 0.41 20.92
41.8898 0.28 21.05
41.9217 0.28 20.92
41.9579 0.41 21.05
41.9956 0.28 20.92
42.0328 0.28 21.05
42.0697 0.28 21.05
42.1053 0.28 21.05
42.1441 0.28 21.05
42.1811 0.28 21.05
42.2156 0.28 21.05
42.2573 0.28 21.05
42.2991 0.28 20.92
42.3354 0.41 21.05
42.3732 0.28 20.92
42.4102 0.41 21.05
42.4420 0.28 21.05
42.4795 0.41 21.05
42.5161 0.28 21.05
42.5529 0.41 21.05
42.5880 0.28 21.05
42.6225 0.28 21.05
42.6594 0.41 21.05
42.6919 0.28 21.05
42.7298 0.41 21.05
42.7642 0.41 20.79
42.8020 0.28 21.05
42.8398 0.28 21.05
42.8769 0.41 21.18
42.9128 0.28 21.05
42.9486 0.28 21.05
42.9860 0.41 21.05
43.0237 0.41 21.05
43.0592 0.28 21.05
43.0975 0.28 21.05
43.1338 0.28 21.18
43.1711 0.28 21.05
43.2076 0.28 21.05
43.2455 0.28 21.18
43.2902 0.28 21.05
43.3231 0.41 21.05
43.3597 0.41 21.05
43.3955 0.41 21.05
43.4317 0.28 21.05
43.4664 0.28 21.05
43.5027 0.28 21.05
43.5399 0.28 21.05
43.5773 0.28 21.05
43.6197 0.28 21.05
43.6509 0.28 21.18
43.6878 0.41 21.05
43.7233 0.41 21.05
43.7611 0.41 21.05
43.7992 0.28 21.05
43.8309 0.28 21.05
43.8635 0.28 21.05
43.8987 0.28 21.05
43.9337 0.15 21.05
43.9682 0.28 21.05
44.0028 0.28 21.05
44.0411 0.28 21.05
44.0750 0.28 21.05
44.1113 0.28 21.05
44.1471 0.28 21.05
44.1812 0.28 21.05
44.2191 0.28 21.05
44.2636 0.28 21.18
44.3019 0.28 21.05
44.3373 0.41 21.05
44.3754 0.28 21.05
44.4133 0.28 21.05
44.4508 0.28 21.18
44.4867 0.41 21.05
44.5190 0.28 21.05
44.5562 0.41 21.18
44.5920 0.28 21.05
44.6293 0.28 21.05
44.6661 0.28 21.05
44.7035 0.28 21.05
44.7394 0.28 21.05
44.7748 0.28 21.05
44.8111 0.28 21.05
44.8450 0.28 21.05
44.8839 0.41 21.05
44.9206 0.28 21.18
44.9573 0.28 21.05
44.9941 0.28 21.18
45.0264 0.28 21.05
45.0629 0.28 21.05
45.1002 0.28 21.18
45.1379 0.28 21.18
45.1746 0.41 21.05
45.2062 0.15 21.18
45.2461 0.41 21.05
45.2885 0.28 21.05
45.3264 0.28 21.05
45.3620 0.41 21.05
45.3994 0.28 21.05
45.4355 0.28 21.05
45.4734 0.28 21.05
45.5101 0.15 21.05
45.5470 0.28 21.05
45.5835 0.28 21.05
45.6166 0.28 21.05
45.6539 0.28 21.05
45.6906 0.28 21.05
45.7251 0.28 21.05
45.7595 0.28 21.05
45.7972 0.28 21.05
45.8317 0.28 21.05
45.8643 0.28 21.05
45.8972 0.28 21.05
45.9310 0.41 21.18
45.9682 0.28 21.05
46.0035 0.28 21.18
46.0392 0.28 21.05
46.0757 0.28 21.05
46.1122 0.41 21.18
46.1492 0.28 21.05
46.1857 0.28 21.05
46.2236 0.41 21.05
46.2691 0.28 21.05
46.3033 0.28 21.05
46.3407 0.28 21.05
46.3774 0.28 21.05
46.4164 0.28 21.05
46.4561 0.28 21.05
46.4936 0.28 21.05
46.5336 0.28 21.05
46.5710 0.28 21.05
46.6079 0.28 21.05
46.6393 0.28 21.05
46.6776 0.41 21.18
46.7128 0.41 21.05
46.7503 0.28 21.18
46.7884 0.28 21.18
46.8236 0.41 21.05
46.8578 0.28 21.05
46.8949 0.28 21.05
46.9321 0.28 21.18
46.9676 0.28 21.18
47.0043 0.28 21.18
47.0414 0.41 21.18
47.0782 0.41 21.05
47.1142 0.28 21.05
47.1537 0.28 21.05
47.1895 0.28 21.05
47.2277 0.28 21.18
47.2682 0.41 21.18
47.3075 0.28 21.05
47.3459 0.28 21.05
47.3854 0.28 21.05
47.4224 0.28 21.18
47.4594 0.41 21.05
47.4925 0.28 21.05
47.5293 0.28 20.92
47.5625 0.28 21.05
47.5952 0.28 21.05
47.6321 0.28 21.05
47.6644 0.28 21.05
47.7016 0.28 20.92
47.7373 0.41 21.05
47.7751 0.28 21.05
47.8118 0.28 21.18
47.8470 0.28 21.05
47.8816 0.28 21.18
47.9262 0.41 21.18
47.9633 0.28 21.18
48.0002 0.28 21.18
48.0378 0.28 21.05
48.0745 0.28 21.18
48.1110 0.28 21.05
48.1482 0.28 21.18
48.1846 0.41 21.05
48.2213 0.28 21.18
48.2622 0.28 21.05
48.2989 0.28 21.05
48.3360 0.41 21.18
48.3730 0.28 21.18
48.4065 0.28 21.05
48.4411 0.41 21.05
48.4783 0.28 21.05
48.5151 0.28 21.05
48.5533 0.28 21.05
48.5861 0.28 21.05
48.6213 0.28 21.18
48.6586 0.28 21.05
48.6957 0.28 21.05
48.7321 0.28 21.05
48.7699 0.28 21.05
48.8071 0.15 21.05
48.8433 0.15 21.05
48.8808 0.41 21.05
48.9182 0.28 21.05
48.9536 0.28 21.18
48.9903 0.41 21.05
49.0280 0.28 21.05
49.0638 0.28 21.05
49.0991 0.28 21.18
49.1352 0.28 21.05
49.1724 0.28 21.05
49.2087 0.28 21.05
49.2417 0.28 21.05
49.2809 0.28 21.05
49.3172 0.28 21.05
49.3522 0.41 21.05
49.3869 0.28 21.05
49.4203 0.28 21.05
49.4553 0.28 21.05
49.4891 0.28 21.05
49.5242 0.28 21.05
49.5604 0.28 21.05
49.5969 0.28 21.05
49.6351 0.28 21.18
49.6698 0.28 21.05
49.7036 0.28 21.18
49.7424 0.28 21.05
49.7759 0.41 21.18
49.8096 0.28 21.05
49.8473 0.28 21.05
49.8838 0.41 21.05
49.9201 0.28 21.05
49.9582 0.28 21.05
49.9958 0.28 21.05
50.0314 0.28 21.05
50.0687 0.41 21.05
50.1059 0.28 21.05
50.1405 0.28 21.05
50.1759 0.41 21.05
50.2137 0.28 21.05
50.2555 0.28 21.18
50.2945 0.41 21.05
50.3308 0.28 21.05
50.3664 0.28 21.05
50.4042 0.28 21.18
50.4414 0.28 21.05
50.4785 0.28 21.05
50.5162 0.28 21.18
50.5523 0.28 21.18
50.5872 0.28 21.05
50.6257 0.28 21.05
50.6586 0.28 21.05
50.6949 0.28 21.05
50.7306 0.41 21.05
50.7676 0.28 21.05
50.8023 0.28 21.05
50.8386 0.28 21.05
50.8734 0.28 21.05
50.9080 0.28 21.05
50.9455 0.28 21.18
50.9814 0.28 21.05
51.0148 0.28 21.05
51.0471 0.28 21.05
51.0847 0.41 21.05
51.1218 0.28 21.05
51.1569 0.28 21.05
51.1940 0.28 21.18
51.2323 0.28 21.05
51.2870 0.28 21.05
51.3261 0.28 21.05
51.3588 0.28 21.18
51.3970 0.28 21.05
51.4337 0.28 21.05
51.4676 0.28 21.05
51.5042 0.41 21.18
51.5391 0.28 21.05
51.5754 0.28 21.05
51.6123 0.41 21.18
51.6501 0.41 21.05
51.6824 0.28 21.05
51.7189 0.28 21.18
51.7541 0.28 21.05
51.7893 0.28 21.05
51.8243 0.28 21.05
51.8624 0.28 21.05
51.9005 0.41 21.05
51.9369 0.28 21.05
51.9735 0.28 21.18
52.0101 0.28 21.05
52.0505 0.41 21.05
52.0879 0.28 21.05
52.1241 0.28 21.05
52.1617 0.28 21.18
52.1978 0.28 21.05
52.2353 0.41 21.05
52.2786 0.28 21.05
52.3159 0.41 21.05
52.3530 0.28 21.05
52.3903 0.41 21.05
52.4274 0.28 21.18
52.4649 0.28 21.05
52.5016 0.15 21.18
52.5368 0.28 21.18
52.5742 0.28 21.18
52.6120 0.28 21.18
52.6495 0.28 21.05
52.6870 0.28 21.18
52.7192 0.41 21.05
52.7515 0.28 21.05
52.7844 0.28 21.18
52.8216 0.28 20.92
52.8576 0.15 21.05
52.8955 0.28 21.05
52.9312 0.28 21.05
52.9688 0.15 21.05
53.0054 0.28 21.05
53.0381 0.28 21.05
53.0709 0.28 21.05
53.1077 0.28 21.05
53.1448 0.28 21.05
53.1819 0.28 21.05
53.2190 0.28 21.18
53.2583 0.28 21.05
53.2965 0.28 21.05
53.3323 0.28 21.18
53.3704 0.28 21.18
53.4072 0.28 21.05
53.4438 0.28 21.05
53.4795 0.28 21.05
53.5124 0.28 21.18
53.5499 0.28 21.05
53.5869 0.28 21.05
53.6236 0.28 21.18
53.6597 0.28 20.92
53.6967 0.28 21.05
53.7343 0.41 21.05
53.7697 0.15 21.05
53.8042 0.28 21.05
53.8403 0.41 21.05
53.8758 0.28 21.05
53.9105 0.28 21.05
53.9451 0.28 21.05
53.9806 0.28 21.05
54.0171 0.28 21.05
54.0530 0.28 21.05
54.0898 0.41 21.05
54.1269 0.28 21.05
54.1644 0.28 21.05
54.2036 0.28 21.05
54.2433 0.28 21.05
54.2831 0.41 21.05
54.3205 0.28 21.18
54.3578 0.28 21.05
54.3923 0.28 21.18
54.4308 0.28 21.05
54.4679 0.41 21.05
54.5048 0.41 21.05
54.5398 0.28 21.05
54.5775 0.28 21.18
54.6140 0.28 21.05
54.6516 0.28 21.05
54.6881 0.28 21.05
54.7247 0.28 21.05
54.7587 0.28 21.05
54.7944 0.28 21.18
54.8316 0.28 21.05
54.8680 0.28 21.18
54.9051 0.28 21.05
54.9415 0.28 21.05
54.9755 0.15 21.18
55.0127 0.28 21.05
55.0489 0.28 21.05
55.0860 0.28 21.05
55.1187 0.28 21.18
55.1543 0.28 21.18
55.1924 0.41 21.05
55.2296 0.28 21.05
55.2730 0.41 21.05
55.3110 0.28 21.05
55.3523 0.28 21.05
55.3892 0.28 21.05
time[sec] Pin[KPa] Pout[KPa]
06 24 19 16:17:17
0.1125 0.28 0.41
0.2001 0.67 0.54
0.2506 1.96 0.41
0.2939 2.99 0.41
0.3316 3.77 0.41
0.3912 5.06 0.41
0.4294 5.83 0.41
0.4662 6.47 0.54
0.5039 7.25 0.41
0.5410 8.02 0.41
0.5774 8.54 0.41
0.6184 9.31 0.41
0.6559 9.96 0.41
0.6958 10.60 0.54
0.7336 11.25 0.54
0.7689 11.76 0.41
0.8068 12.41 0.41
0.8418 13.05 0.41
0.8840 13.57 0.41
0.9248 14.08 0.41
0.9597 14.60 0.28
0.9992 15.11 0.41
1.0376 15.63 0.41
1.0735 16.15 0.41
1.1101 16.53 0.54
1.1468 17.05 0.54
1.1816 17.56 0.41
1.2165 17.82 0.41
1.2522 18.34 0.41
1.2912 18.60 0.54
1.3275 19.11 0.54
1.3769 19.50 0.54
1.4144 19.89 0.41
1.4481 20.27 0.54
1.4853 20.66 0.41
1.5237 21.05 0.41
1.5603 21.43 0.54
1.5976 21.69 0.41
1.6346 21.95 0.41
1.6717 22.34 0.54
1.7062 22.59 0.41
1.7450 22.85 0.54
1.7822 23.11 0.41
1.8178 23.37 0.54
1.8561 23.75 0.54
1.8956 24.01 0.41
1.9335 24.14 0.41
1.9705 24.40 0.41
2.0100 24.79 0.41
2.0487 24.92 0.54
2.0834 25.17 0.41
2.1204 25.30 0.41
2.1572 25.56 0.54
2.1941 25.69 0.54
2.2362 25.95 0.41
2.2760 26.08 0.41
2.3137 26.33 0.41
2.3615 26.46 0.54
2.4031 26.72 0.54
2.4411 26.98 0.54
2.4783 26.98 0.41
2.5191 27.24 0.41
2.5554 27.37 0.41
2.5915 27.49 0.41
2.6278 27.62 0.41
2.6647 27.62 0.54
2.7027 27.75 0.41
2.7405 27.88 0.41
2.7854 28.01 0.54
2.8223 28.14 0.54
2.8583 28.27 0.41
2.8959 28.27 0.41
2.9315 28.27 0.54
2.9686 28.66 0.54
3.0053 28.66 0.41
3.0413 28.66 0.54
3.0834 28.78 0.54
3.1193 28.91 0.54
3.1576 28.91 0.54
3.1944 28.91 0.54
3.2309 29.04 0.54
3.2679 29.17 0.41
3.3038 29.30 0.41
3.3462 29.30 0.41
3.3900 29.43 0.41
3.4270 29.43 0.41
3.4657 29.43 0.41
3.5028 29.56 0.41
3.5377 29.56 0.41
3.5766 29.56 0.41
3.6119 29.69 0.41
3.6496 29.69 0.41
3.6887 29.69 0.41
3.7271 29.82 0.41
3.7629 29.82 0.41
3.8003 29.82 0.41
3.8364 29.94 0.41
3.8741 29.94 0.54
3.9107 29.94 0.54
3.9476 29.82 0.54
3.9852 29.94 0.54
4.0218 30.07 0.54
4.0589 30.07 0.41
4.0977 30.07 0.54
4.1334 30.07 0.54
4.1685 30.20 0.54
4.2060 30.20 0.54
4.2434 30.20 0.54
4.2784 30.20 0.41
4.3170 30.20 0.54
4.3634 30.33 0.54
4.3979 30.33 0.54
4.4359 30.33 0.41
4.4729 30.33 0.54
4.5136 30.33 0.41
4.5510 30.33 0.54
4.5910 30.46 0.54
4.6275 30.46 0.54
4.6610 30.33 0.54
4.6963 30.46 0.54
4.7339 30.46 0.54
4.7718 30.59 0.28
4.8100 30.46 0.54
4.8419 30.46 0.54
4.8810 30.46 0.54
4.9234 30.46 0.41
4.9598 30.46 0.54
4.9973 30.46 0.54
5.0345 30.59 0.41
5.0714 30.59 0.54
5.1054 30.46 0.54
5.1385 30.59 0.41
5.1765 30.59 0.41
5.2134 30.46 0.41
5.2505 30.59 0.54
5.2867 30.59 0.41
5.3237 30.46 0.54
5.3685 30.72 0.54
5.4064 30.72 0.54
5.4434 30.59 0.54
5.4788 30.59 0.41
5.5132 30.72 0.41
5.5498 30.59 0.54
5.5867 30.59 0.54
5.6232 30.59 0.54
5.6594 30.59 0.54
5.6954 30.59 0.54
5.7335 30.59 0.54
5.7710 30.59 0.54
5.8092 30.72 0.54
5.8412 30.72 0.54
5.8760 30.59 0.41
5.9126 30.72 0.54
5.9506 30.72 0.41
5.9872 30.72 0.41
6.0251 30.72 0.54
6.0599 30.59 0.54
6.0946 30.72 0.54
6.1297 30.59 0.54
6.1644 30.72 0.41
6.2014 30.72 0.54
6.2383 30.72 0.41
6.2754 30.72 0.41
6.3131 30.72 0.41
6.3629 30.72 0.54
6.4026 30.72 0.67
6.4369 30.72 0.54
6.4751 30.72 0.54
6.5134 30.72 0.54
6.5489 30.59 0.54
6.5848 30.72 0.54
6.6261 30.85 0.54
6.6625 30.72 0.54
6.6999 30.72 0.54
6.7362 30.72 0.54
6.7728 30.72 0.41
6.8109 30.72 0.41
6.8472 30.72 0.54
6.8844 30.72 0.54
6.9215 30.72 0.54
6.9585 30.72 0.54
6.9973 30.85 0.41
7.0366 30.72 0.54
7.0737 30.72 0.54
7.1101 30.72 0.41
7.1480 30.85 0.54
7.1845 30.72 0.41
7.2171 30.72 0.41
7.2535 30.72 0.54
7.2923 30.72 0.54
7.3307 30.72 0.54
7.3768 30.72 0.54
7.4133 30.72 0.54
7.4505 30.72 0.54
7.4881 30.72 0.54
7.5300 30.72 0.28
7.5639 30.72 0.41
7.6010 30.72 0.41
7.6391 30.85 0.54
7.6741 30.85 0.41
7.7104 30.72 0.41
7.7455 30.72 0.54
7.7839 30.72 0.41
7.8178 30.85 0.41
7.8614 30.85 0.41
7.8955 30.72 0.54
7.9330 30.85 0.54
7.9714 30.72 0.54
8.0066 30.72 0.41
8.0438 30.85 0.54
8.0790 30.85 0.54
8.1139 30.72 0.54
8.1511 30.85 0.54
8.1868 30.72 0.41
8.2203 30.85 0.54
8.2554 30.85 0.54
8.2942 30.85 0.67
8.3304 30.85 0.54
8.3753 30.85 0.54
8.4092 30.85 0.54
8.4457 30.85 0.54
8.4826 30.85 0.41
8.5210 30.85 0.41
8.5556 30.72 0.54
8.5934 30.72 0.41
8.6296 30.72 0.54
8.6646 30.72 0.54
8.6999 30.85 0.54
8.7376 30.85 0.54
8.7730 30.85 0.54
8.8097 30.85 0.54
8.8454 30.85 0.54
8.8842 30.85 0.54
8.9195 30.72 0.41
8.9570 30.72 0.54
8.9940 30.85 0.41
9.0327 30.72 0.54
9.0689 30.85 0.41
9.1052 30.85 0.41
9.1424 30.85 0.54
9.1789 30.85 0.54
9.2148 30.85 0.41
9.2524 30.85 0.54
9.2898 30.85 0.41
9.3266 30.85 0.54
9.3672 30.85 0.41
9.4031 30.85 0.41
9.4403 30.72 0.41
9.4775 30.85 0.41
9.5149 30.85 0.41
9.5497 30.85 0.54
9.5918 30.85 0.41
9.6287 30.85 0.41
9.6666 30.85 0.41
9.7033 30.85 0.67
9.7404 30.85 0.54
9.7804 30.85 0.41
9.8186 30.85 0.41
9.8525 30.85 0.41
9.8877 30.85 0.41
9.9215 30.85 0.54
9.9558 30.85 0.41
9.9928 30.85 0.41
10.0308 30.85 0.41
10.0677 30.85 0.41
10.1025 30.85 0.41
10.1403 30.85 0.54
10.1776 30.85 0.67
10.2154 30.85 0.54
10.2515 30.85 0.54
10.2892 30.85 0.41
10.3255 30.85 0.54
10.3773 30.85 0.54
10.4142 30.98 0.54
10.4534 30.85 0.54
10.5001 30.85 0.54
10.5483 30.85 0.67
10.5984 30.85 0.54
10.6359 30.85 0.41
10.6786 30.85 0.41
10.7154 30.85 0.54
10.7509 30.85 0.54
10.7939 30.85 0.41
10.8245 30.85 0.54
10.8581 30.85 0.41
10.8950 30.85 0.54
10.9310 30.85 0.54
10.9684 30.85 0.41
11.0057 30.85 0.54
11.0431 30.85 0.67
11.0832 30.85 0.54
11.1205 30.85 0.54
11.1572 30.98 0.41
11.1900 30.85 0.54
11.2267 30.85 0.54
11.2638 30.85 0.41
11.2966 30.85 0.54
11.3329 30.85 0.41
11.3789 30.85 0.54
11.4152 30.85 0.41
11.4526 30.85 0.41
11.4881 30.85 0.54
11.5256 30.85 0.41
11.5622 30.98 0.54
11.5998 30.85 0.54
11.6359 30.85 0.54
11.6743 30.85 0.41
11.7099 30.85 0.41
11.7451 30.85 0.41
11.7826 30.85 0.41
11.8200 30.85 0.54
11.8578 30.98 0.41
11.8952 30.85 0.54
11.9317 30.72 0.54
11.9683 30.85 0.41
12.0083 30.85 0.54
12.0476 30.98 0.54
12.0827 30.85 0.54
12.1198 30.85 0.41
12.1555 30.85 0.41
12.1926 30.85 0.41
12.2302 30.98 0.54
12.2660 30.85 0.54
12.3020 30.98 0.54
12.3370 30.85 0.54
12.3786 30.85 0.54
12.4146 30.85 0.54
12.4510 30.85 0.54
12.4883 30.85 0.41
12.5252 30.98 0.54
12.5598 30.85 0.67
12.5949 30.85 0.54
12.6327 30.85 0.54
12.6733 30.85 0.41
12.7085 30.85 0.54
12.7450 30.85 0.54
12.7831 30.98 0.54
12.8185 30.85 0.54
12.8566 30.85 0.54
12.8951 30.85 0.41
12.9345 30.85 0.41
12.9719 30.85 0.41
13.0084 30.98 0.54
13.0455 30.85 0.41
13.0805 30.85 0.54
13.1182 30.85 0.54
13.1551 30.85 0.54
13.1919 30.85 0.54
13.2292 30.85 0.54
13.2658 30.98 0.54
13.3018 30.85 0.54
13.3391 30.98 0.54
13.3859 30.98 0.54
13.4214 30.85 0.54
13.4580 30.85 0.54
13.4956 30.85 0.54
13.5308 30.85 0.54
13.5700 30.85 0.54
13.6056 30.85 0.54
13.6419 30.98 0.54
13.6800 30.85 0.54
13.7146 30.85 0.41
13.7492 30.85 0.54
13.7851 30.85 0.41
13.8232 30.85 0.41
13.8594 30.85 0.54
13.8959 30.85 0.41
13.9328 30.85 0.41
13.9692 30.85 0.54
14.0058 30.85 0.54
14.0441 30.98 0.54
14.0767 30.98 0.54
14.1146 30.85 0.41
14.1502 30.98 0.54
14.1876 30.98 0.41
14.2250 30.98 0.41
14.2612 30.85 0.54
14.2979 30.98 0.54
14.3369 30.85 0.54
14.3792 30.85 0.54
14.4196 30.85 0.54
14.4571 30.98 0.54
14.4942 30.98 0.54
14.5318 30.98 0.54
14.5680 30.85 0.54
14.6037 30.85 0.54
14.6372 30.85 0.41
14.6721 30.98 0.41
14.7118 30.85 0.41
14.7511 30.98 0.54
14.7854 30.98 0.54
14.8208 30.85 0.41
14.8598 30.85 0.54
14.8981 30.85 0.54
14.9328 30.85 0.54
14.9705 30.98 0.54
15.0072 30.85 0.54
15.0442 30.85 0.67
15.0772 30.98 0.41
15.1139 30.85 0.54
15.1490 30.98 0.54
15.1860 30.98 0.41
15.2244 30.85 0.54
15.2639 30.98 0.54
15.3002 30.98 0.41
15.3378 30.98 0.41
15.3782 30.98 0.41
15.4159 30.98 0.54
15.4537 30.85 0.41
15.4963 30.98 0.54
15.5316 30.98 0.41
15.5643 30.85 0.41
15.6007 31.11 0.41
15.6381 30.98 0.54
15.6767 30.85 0.54
15.7151 30.98 0.54
15.7524 30.98 0.54
15.7876 30.98 0.41
15.8251 30.98 0.54
15.8619 30.98 0.54
15.8993 30.98 0.54
15.9356 30.98 0.54
15.9734 30.98 0.54
16.0107 30.98 0.54
16.0458 30.98 0.41
16.0842 30.98 0.54
16.1206 30.98 0.41
16.1591 30.98 0.41
16.1939 30.85 0.54
16.2302 30.98 0.54
16.2691 30.98 0.54
16.3053 30.98 0.41
16.3396 30.98 0.54
16.3820 30.98 0.41
16.4193 30.98 0.41
16.4559 30.98 0.41
16.4948 30.98 0.54
16.5307 30.98 0.54
16.5644 30.98 0.54
16.6003 30.98 0.54
16.6362 30.98 0.54
16.6747 30.98 0.41
16.7092 30.98 0.67
16.7442 30.98 0.54
16.7797 30.98 0.54
16.8169 30.98 0.41
16.8529 30.98 0.54
16.8890 30.98 0.41
16.9266 30.98 0.41
16.9631 30.98 0.41
17.0004 30.98 0.41
17.0399 30.98 0.54
17.0712 30.98 0.54
17.1071 30.98 0.54
17.1446 30.98 0.54
17.1824 30.98 0.54
17.2184 30.98 0.41
17.2558 30.98 0.54
17.2906 30.98 0.41
17.3246 30.98 0.54
17.3697 30.98 0.41
17.4088 30.98 0.54
17.4440 30.98 0.54
17.4789 30.98 0.54
17.5140 30.98 0.67
17.5506 30.98 0.54
17.5873 30.98 0.54
17.6234 30.98 0.41
17.6602 30.98 0.54
17.6969 30.98 0.41
17.7342 30.98 0.41
17.7717 30.98 0.54
17.8085 30.98 0.54
17.8426 30.98 0.54
17.8772 30.98 0.41
17.9108 30.98 0.54
17.9505 30.98 0.54
17.9884 31.11 0.54
18.0239 31.11 0.41
18.0611 30.98 0.41
18.0994 30.98 0.54
18.1361 30.98 0.54
18.1750 30.98 0.41
18.2133 30.98 0.41
18.2504 30.98 0.41
18.2871 30.98 0.41
18.3254 31.11 0.54
18.3746 30.98 0.54
18.4063 30.98 0.54
18.4443 30.98 0.41
18.4787 30.98 0.41
18.5158 30.98 0.54
18.5531 30.98 0.54
18.5908 30.98 0.54
18.6285 30.98 0.54
18.6653 30.98 0.54
18.7035 30.98 0.41
18.7360 30.98 0.41
18.7718 30.98 0.54
18.8059 30.98 0.54
18.8434 31.11 0.54
18.8805 30.98 0.54
18.9188 30.98 0.67
18.9541 31.11 0.54
18.9901 30.98 0.54
19.0247 30.98 0.54
19.0618 30.98 0.41
19.0970 31.11 0.54
19.1315 30.98 0.54
19.1685 30.98 0.41
19.2010 30.98 0.41
19.2373 30.98 0.54
19.2740 31.11 0.41
19.3123 30.98 0.41
19.3545 31.11 0.41
19.3932 30.98 0.41
19.4290 31.11 0.41
19.4633 30.98 0.54
19.5026 30.98 0.41
19.5405 30.98 0.67
19.5780 30.98 0.54
19.6152 31.11 0.54
19.6513 30.98 0.54
19.6874 30.98 0.41
19.7247 30.98 0.54
19.7622 30.98 0.54
19.7987 30.98 0.41
19.8349 31.11 0.54
19.8688 30.98 0.54
19.9020 30.98 0.41
19.9372 31.11 0.54
19.9733 30.98 0.41
20.0111 31.11 0.54
20.0491 30.98 0.41
20.0841 31.11 0.54
20.1220 30.98 0.54
20.1585 30.98 0.54
20.1982 30.98 0.54
20.2330 30.98 0.41
20.2688 30.98 0.54
20.3067 30.98 0.54
20.3439 30.98 0.54
20.3837 31.11 0.54
20.4205 31.11 0.41
20.4549 31.11 0.41
20.4916 31.11 0.41
20.5320 31.11 0.41
20.5682 30.98 0.41
20.6048 31.11 0.41
20.6431 31.11 0.41
20.6805 30.98 0.54
20.7162 30.98 0.54
20.7521 31.11 0.54
20.7888 30.98 0.54
20.8274 31.11 0.54
20.8679 31.11 0.54
20.9046 31.11 0.54
20.9422 31.11 0.54
20.9769 30.98 0.54
21.0120 31.11 0.54
21.0488 31.11 0.54
21.0850 31.11 0.54
21.1177 31.11 0.54
21.1568 30.98 0.54
21.1952 30.98 0.54
21.2326 31.11 0.54
21.2696 30.98 0.67
21.3056 30.98 0.54
21.3464 30.98 0.54
21.3882 30.98 0.54
21.4244 31.11 0.54
21.4602 31.11 0.54
21.4973 31.11 0.54
21.5354 31.11 0.54
21.5720 31.11 0.54
21.6100 31.11 0.54
21.6457 30.98 0.41
21.6794 31.11 0.54
21.7160 31.11 0.41
21.7518 31.11 0.41
21.7927 31.11 0.41
21.8305 30.98 0.41
21.8634 31.11 0.54
21.8991 31.11 0.54
21.9358 31.11 0.54
21.9751 31.11 0.41
22.0077 31.11 0.54
22.0415 31.11 0.41
22.0777 31.11 0.54
22.1120 31.11 0.54
22.1493 31.11 0.41
22.1870 31.11 0.41
22.2241 30.98 0.54
22.2606 31.11 0.67
22.2937 31.11 0.54
22.3261 31.11 0.54
22.3699 31.11 0.54
22.4076 31.11 0.54
22.4438 31.11 0.54
22.4811 30.98 0.54
22.5191 30.98 0.41
22.5554 31.11 0.41
22.5910 31.11 0.54
22.6287 31.11 0.54
22.6721 31.11 0.41
22.7108 31.11 0.54
22.7474 31.11 0.54
22.7838 31.11 0.54
22.8215 30.98 0.67
22.8577 30.98 0.54
22.8975 31.11 0.67
22.9331 30.98 0.54
22.9672 30.98 0.41
23.0059 31.11 0.54
23.0422 30.98 0.54
23.0801 31.11 0.54
23.1169 30.98 0.41
23.1524 30.98 0.54
23.1908 30.98 0.54
23.2323 30.98 0.54
23.2682 30.98 0.41
23.3045 30.98 0.54
23.3465 31.11 0.41
23.3866 30.98 0.54
23.4246 31.11 0.41
23.4609 31.11 0.67
23.4936 30.98 0.54
23.5268 30.98 0.41
23.5639 30.98 0.41
23.6002 30.98 0.54
23.6347 30.98 0.41
23.6716 30.98 0.41
23.7097 30.98 0.54
23.7468 30.98 0.54
23.7836 30.98 0.54
23.8216 30.98 0.54
23.8587 30.98 0.54
23.8947 30.98 0.54
23.9317 30.98 0.67
23.9687 30.98 0.54
24.0055 30.98 0.54
24.0385 30.98 0.54
24.0714 30.98 0.54
24.1085 30.98 0.54
24.1426 30.85 0.54
24.1784 30.85 0.54
24.2182 30.98 0.41
24.2544 30.72 0.54
24.2929 30.85 0.54
24.3295 30.85 0.54
24.3691 30.98 0.54
24.4064 30.85 0.41
24.4438 30.98 0.54
24.4803 30.85 0.54
24.5166 30.85 0.67
24.5540 30.98 0.54
24.5913 30.85 0.54
24.6278 30.85 0.54
24.6682 30.85 0.41
24.7062 30.85 0.54
24.7422 30.85 0.41
24.7796 30.85 0.54
24.8166 30.98 0.41
24.8522 30.85 0.41
24.8868 30.85 0.54
24.9229 30.85 0.41
24.9578 30.98 0.54
24.9961 30.98 0.54
25.0324 30.85 0.54
25.0690 30.85 0.54
25.1066 30.85 0.54
25.1436 30.85 0.67
25.1818 30.85 0.54
25.2168 30.85 0.41
25.2543 30.72 0.54
25.2912 30.72 0.54
25.3284 30.72 0.54
25.3717 30.72 0.54
25.4099 30.59 0.54
25.4473 30.59 0.54
25.4836 30.59 0.41
25.5208 30.46 0.54
25.5583 30.46 0.41
25.5933 30.33 0.54
25.6306 30.33 0.54
25.6663 30.33 0.54
25.7015 30.20 0.41
25.7402 30.20 0.54
25.7876 30.07 0.54
25.8246 29.94 0.54
25.8597 29.94 0.54
25.8956 29.82 0.54
25.9308 29.82 0.54
25.9677 29.69 0.54
26.0076 29.69 0.41
26.0462 29.56 0.41
26.0841 29.56 0.41
26.1188 29.43 0.41
26.1554 29.43 0.41
26.1918 29.30 0.54
26.2298 29.17 0.41
26.2657 29.17 0.41
26.3026 29.04 0.41
26.3400 29.17 0.54
26.3850 28.91 0.41
26.4226 28.78 0.41
26.4575 28.78 0.54
26.4921 28.66 0.41
26.5285 28.66 0.41
26.5613 28.53 0.54
26.5970 28.40 0.54
26.6350 28.27 0.54
26.6724 28.27 0.54
26.7065 28.27 0.54
26.7416 28.14 0.54
26.7763 28.14 0.41
26.8124 28.14 0.41
26.8474 28.01 0.54
26.8842 27.88 0.54
26.9203 27.88 0.41
26.9593 27.88 0.54
26.9904 27.88 0.54
27.0272 27.75 0.54
27.0647 27.75 0.54
27.1013 27.75 0.54
27.1394 27.75 0.41
27.1752 27.62 0.41
27.2125 27.62 0.41
27.2489 27.62 0.54
27.2864 27.62 0.54
27.3215 27.62 0.41
27.3681 27.62 0.54
27.4055 27.62 0.54
27.4403 27.62 0.54
27.4750 27.62 0.41
27.5117 27.62 0.54
27.5476 27.62 0.54
27.5839 27.62 0.54
27.6209 27.62 0.54
27.6629 27.62 0.54
27.7044 27.49 0.41
27.7426 27.62 0.41
27.7763 27.62 0.54
27.8133 27.62 0.54
27.8466 27.62 0.54
27.8843 27.62 0.54
27.9211 27.75 0.41
27.9563 27.75 0.54
27.9951 27.62 0.54
28.0323 27.75 0.54
28.0648 27.75 0.67
28.1015 27.75 0.54
28.1378 27.75 0.54
28.1749 27.75 0.54
28.2119 27.88 0.54
28.2474 27.88 0.54
28.2815 27.88 0.54
28.3160 27.88 0.41
28.3549 27.88 0.54
28.3968 28.01 0.54
28.4366 27.88 0.54
28.4734 27.88 0.54
28.5095 27.88 0.54
28.5432 27.88 0.54
28.5804 27.88 0.54
28.6153 28.01 0.54
28.6500 28.01 0.54
28.6870 28.01 0.54
28.7195 28.01 0.41
28.7565 28.01 0.41
28.7892 28.01 0.54
28.8243 28.14 0.41
28.8597 28.14 0.41
28.8958 28.14 0.54
28.9295 28.14 0.41
28.9619 28.27 0.54
28.9974 28.27 0.54
29.0344 28.40 0.41
29.0721 28.27 0.54
29.1069 28.27 0.41
29.1413 28.40 0.54
29.1776 28.40 0.54
29.2156 28.40 0.54
29.2508 28.53 0.54
29.2893 28.53 0.54
29.3219 28.40 0.54
29.3630 28.53 0.54
29.3997 28.53 0.54
29.4364 28.53 0.54
29.4735 28.53 0.54
29.5059 28.66 0.41
29.5429 28.66 0.41
29.5786 28.66 0.41
29.6159 28.66 0.54
29.6494 28.66 0.54
29.6845 28.66 0.54
29.7194 28.78 0.41
29.7523 28.78 0.54
29.7882 28.78 0.54
29.8245 28.78 0.54
29.8615 28.78 0.54
29.8999 28.78 0.54
29.9364 28.91 0.54
29.9722 28.91 0.54
30.0086 28.91 0.41
30.0427 28.91 0.54
30.0751 28.01 0.54
30.1124 27.24 0.54
30.1494 26.20 0.41
30.1845 25.43 0.54
30.2189 24.53 0.54
30.2556 23.63 0.41
30.2927 22.85 0.41
30.3300 21.95 0.41
30.3745 21.18 0.54
30.4120 20.53 0.41
30.4440 19.89 0.54
30.4804 19.37 0.54
30.5174 18.73 0.54
30.5542 18.21 0.54
30.5909 17.31 0.54
30.6279 16.66 0.54
30.6643 16.15 0.41
30.7010 15.37 0.54
30.7445 14.86 0.54
30.7801 14.21 0.54
30.8158 13.57 0.54
30.8522 12.92 0.80
30.8898 12.41 0.93
30.9232 12.02 2.86
30.9605 11.63 7.76
30.9969 11.25 8.15
31.0336 10.73 8.15
31.0669 10.47 8.15
31.1032 9.96 8.28
31.1384 9.57 8.28
31.1731 9.18 8.28
31.2097 8.92 8.41
31.2470 8.41 8.41
31.2833 8.02 8.41
31.3192 7.63 8.54
31.3633 7.25 8.54
31.4021 6.86 8.67
31.4395 6.47 8.67
31.4766 6.22 8.54
31.5144 5.83 8.92
31.5479 5.57 8.80
31.5823 5.31 8.80
31.6198 5.06 8.92
31.6563 4.67 9.05
31.6892 4.54 8.92
31.7270 4.28 9.18
31.7627 4.02 9.05
31.8005 3.89 9.18
31.8395 3.64 9.18
31.8775 3.51 9.18
31.9144 3.25 9.31
31.9506 2.99 9.44
31.9885 2.86 9.57
32.0255 2.73 9.44
32.0619 2.61 9.57
32.0969 2.48 9.70
32.1350 2.35 9.57
32.1732 2.22 9.83
32.2123 2.09 9.96
32.2531 1.96 9.83
32.2908 1.83 9.96
32.3272 1.70 10.08
32.3724 1.70 10.08
32.4103 1.57 10.08
32.4474 1.44 10.21
32.4846 1.32 10.34
32.5189 1.32 10.34
32.5569 1.19 10.60
32.5946 1.19 10.47
32.6288 1.19 10.60
32.6644 1.19 10.60
32.7007 1.06 10.73
32.7340 1.06 10.73
32.7687 0.93 10.86
32.8068 0.93 10.86
32.8423 0.93 10.99
32.8769 0.93 10.99
32.9137 0.80 11.12
32.9499 0.80 11.25
32.9871 0.67 11.25
33.0238 0.80 11.37
33.0613 0.67 11.37
33.0981 0.67 11.50
33.1345 0.67 11.50
33.1738 0.54 11.63
33.2128 0.54 11.76
33.2480 0.54 11.76
33.2860 0.54 11.89
33.3232 0.54 12.02
33.3730 0.54 12.02
33.4094 0.41 12.02
33.4457 0.41 12.15
33.4833 0.41 12.28
33.5207 0.41 12.28
33.5600 0.54 12.41
33.5978 0.41 12.41
33.6344 0.41 12.54
33.6718 0.41 12.54
33.7084 0.41 12.66
33.7463 0.41 12.79
33.7815 0.41 12.79
33.8180 0.41 12.79
33.8574 0.41 13.05
33.8934 0.41 12.92
33.9340 0.41 13.05
33.9698 0.41 13.31
34.0081 0.41 13.31
34.0447 0.41 13.18
34.0768 0.41 13.31
34.1098 0.28 13.44
34.1481 0.41 13.57
34.1838 0.41 13.70
34.2198 0.41 13.70
34.2578 0.41 13.70
34.2940 0.28 13.70
34.3266 0.28 13.82
34.3753 0.28 13.95
34.4129 0.28 13.95
34.4499 0.41 14.21
34.4861 0.28 14.21
34.5229 0.28 14.21
34.5603 0.28 14.21
34.5957 0.41 14.47
34.6303 0.28 14.47
34.6650 0.28 14.60
34.7031 0.28 14.60
34.7390 0.41 14.60
34.7772 0.41 14.60
34.8135 0.41 14.73
34.8507 0.28 14.73
34.8866 0.28 14.73
34.9204 0.28 14.99
34.9563 0.28 15.11
34.9914 0.41 14.99
35.0232 0.28 14.99
35.0594 0.28 15.11
35.0967 0.28 15.24
35.1375 0.28 15.24
35.1741 0.41 15.37
35.2124 0.28 15.37
35.2487 0.41 15.50
35.2830 0.41 15.63
35.3179 0.41 15.50
35.3625 0.41 15.63
35.3990 0.28 15.76
35.4355 0.28 15.76
35.4728 0.28 15.76
35.5121 0.41 15.89
35.5475 0.28 15.89
35.5844 0.41 15.89
35.6208 0.28 16.02
35.6574 0.28 16.15
35.6948 0.28 16.15
35.7359 0.41 16.15
35.7723 0.28 16.15
35.8077 0.28 16.40
35.8470 0.28 16.53
35.8826 0.41 16.40
35.9199 0.41 16.53
35.9575 0.28 16.53
35.9925 0.28 16.66
36.0316 0.28 16.66
36.0668 0.28 16.79
36.1058 0.28 16.79
36.1459 0.28 16.92
36.1811 0.28 16.92
36.2180 0.28 16.92
36.2560 0.41 16.92
36.2936 0.41 17.05
36.3309 0.28 17.18
36.3703 0.41 17.31
36.4080 0.28 17.31
36.4434 0.41 17.31
36.4819 0.28 17.31
36.5191 0.28 17.44
36.5551 0.28 17.44
36.5883 0.41 17.44
36.6204 0.41 17.44
36.6570 0.28 17.56
36.6908 0.28 17.56
36.7278 0.28 17.69
36.7631 0.28 17.69
36.7995 0.28 17.82
36.8377 0.28 17.82
36.8752 0.28 17.95
36.9106 0.41 17.82
36.9482 0.28 17.95
36.9843 0.41 18.08
37.0219 0.28 17.95
37.0593 0.28 18.08
37.0917 0.41 18.21
37.1266 0.28 18.08
37.1613 0.28 18.21
37.1977 0.28 18.21
37.2344 0.28 18.21
37.2712 0.28 18.34
37.3087 0.28 18.34
37.3419 0.41 18.34
37.3860 0.28 18.34
37.4245 0.28 18.47
37.4591 0.41 18.60
37.4970 0.28 18.47
37.5316 0.28 18.47
37.5676 0.28 18.60
37.6039 0.41 18.73
37.6406 0.28 18.60
37.6752 0.41 18.73
37.7104 0.28 18.73
37.7464 0.28 18.73
37.7841 0.41 18.85
37.8189 0.28 18.98
37.8566 0.28 18.85
37.8946 0.28 18.98
37.9313 0.28 18.85
37.9681 0.28 18.98
38.0055 0.28 19.11
38.0413 0.28 19.11
38.0795 0.28 19.11
38.1115 0.28 19.11
38.1489 0.28 19.11
38.1858 0.28 19.24
38.2178 0.28 19.24
38.2547 0.28 19.24
38.2893 0.41 19.24
38.3252 0.28 19.37
38.3695 0.28 19.37
38.4066 0.15 19.37
38.4413 0.28 19.37
38.4780 0.41 19.50
38.5123 0.28 19.37
38.5521 0.28 19.50
38.5900 0.28 19.50
38.6267 0.28 19.63
38.6645 0.28 19.63
38.7021 0.28 19.63
38.7362 0.28 19.63
38.7741 0.41 19.63
38.8135 0.28 19.63
38.8486 0.15 19.63
38.8840 0.28 19.76
38.9222 0.28 19.76
38.9590 0.28 19.89
38.9961 0.28 19.76
39.0332 0.28 19.89
39.0693 0.28 19.89
39.1049 0.41 19.89
39.1443 0.28 19.89
39.1812 0.28 20.01
39.2133 0.28 19.89
39.2548 0.41 20.14
39.2892 0.28 20.01
39.3277 0.28 20.01
39.3676 0.28 20.01
39.4050 0.41 20.01
39.4402 0.28 20.14
39.4756 0.28 20.14
39.5118 0.28 20.14
39.5487 0.28 20.14
39.5866 0.28 20.14
39.6229 0.28 20.14
39.6584 0.28 20.27
39.6942 0.28 20.27
39.7290 0.28 20.27
39.7699 0.41 20.27
39.8058 0.28 20.27
39.8438 0.28 20.40
39.8800 0.28 20.40
39.9170 0.41 20.40
39.9553 0.28 20.40
39.9869 0.28 20.40
40.0238 0.15 20.53
40.0594 0.28 20.40
40.0975 0.28 20.53
40.1325 0.28 20.53
40.1669 0.28 20.53
40.2039 0.28 20.40
40.2408 0.28 20.53
40.2782 0.28 20.53
40.3149 0.41 20.53
40.3575 0.41 20.53
40.3958 0.28 20.53
40.4334 0.28 20.53
40.4699 0.28 20.53
40.5075 0.28 20.53
40.5448 0.28 20.53
40.5793 0.28 20.53
40.6171 0.28 20.53
40.6538 0.28 20.66
40.6910 0.28 20.53
40.7276 0.28 20.66
40.7653 0.41 20.66
40.8025 0.28 20.66
40.8393 0.41 20.53
40.8749 0.28 20.66
40.9092 0.28 20.66
40.9446 0.28 20.66
40.9806 0.28 20.79
41.0181 0.28 20.66
41.0549 0.28 20.66
41.0926 0.28 20.66
41.1299 0.28 20.66
41.1626 0.28 20.79
41.1993 0.28 20.66
41.2371 0.28 20.79
41.2716 0.28 20.66
41.3091 0.28 20.66
41.3480 0.28 20.66
41.3913 0.41 20.79
41.4253 0.28 20.79
41.4575 0.28 20.79
41.4941 0.28 20.92
41.5320 0.28 20.79
41.5675 0.28 20.79
41.6049 0.28 20.92
41.6423 0.41 20.79
41.6794 0.28 20.79
41.7121 0.28 20.79
41.7441 0.41 20.79
41.7811 0.28 20.79
41.8183 0.28 20.79
41.8550 0.28 20.79
41.8911 0.28 20.79
41.9290 0.28 20.79
41.9659 0.41 20.92
42.0029 0.28 20.79
42.0397 0.41 20.79
42.0783 0.28 20.79
42.1126 0.28 20.79
42.1494 0.41 20.79
42.1884 0.28 20.79
42.2232 0.41 20.79
42.2581 0.28 20.79
42.2935 0.28 20.79
42.3310 0.41 21.05
42.3747 0.15 20.79
42.4119 0.28 20.79
42.4465 0.28 20.79
42.4817 0.41 20.79
42.5170 0.28 20.92
42.5547 0.15 20.79
42.5915 0.28 20.92
42.6282 0.28 20.79
42.6652 0.28 20.92
42.7025 0.28 20.79
42.7395 0.41 20.92
42.7766 0.41 20.92
42.8133 0.28 20.92
42.8496 0.41 20.92
42.8870 0.28 20.79
42.9237 0.28 20.92
42.9611 0.28 20.92
42.9972 0.41 21.05
43.0347 0.28 20.92
43.0698 0.28 20.92
43.1079 0.41 20.92
43.1444 0.28 20.79
43.1803 0.28 20.92
43.2186 0.28 20.92
43.2545 0.28 20.92
43.2920 0.41 20.92
43.3279 0.28 20.79
43.3741 0.41 20.92
43.4122 0.28 20.92
43.4485 0.28 20.92
43.4839 0.28 20.79
43.5219 0.28 20.92
43.5584 0.28 20.92
43.5970 0.28 20.92
43.6322 0.15 20.92
43.6683 0.28 20.92
43.7059 0.28 20.92
43.7443 0.28 20.92
43.7851 0.28 20.92
43.8204 0.28 20.92
43.8582 0.28 20.92
43.8945 0.28 20.92
43.9308 0.28 20.92
43.9671 0.28 20.92
44.0038 0.41 20.79
44.0403 0.28 20.92
44.0777 0.41 20.92
44.1141 0.28 20.92
44.1514 0.28 20.92
44.1878 0.28 20.92
44.2241 0.28 20.92
44.2624 0.28 20.92
44.2997 0.28 20.92
44.3381 0.15 20.92
44.3810 0.28 20.79
44.4184 0.41 20.92
44.4564 0.28 20.92
44.4909 0.28 20.92
44.5264 0.41 20.92
44.5655 0.41 20.92
44.6017 0.28 20.92
44.6356 0.28 20.92
44.6725 0.28 20.92
44.7088 0.28 20.92
44.7466 0.28 20.92
44.7838 0.28 20.92
44.8202 0.28 20.92
44.8571 0.28 20.92
44.8942 0.28 20.92
44.9310 0.28 20.79
44.9635 0.28 20.92
44.9991 0.28 20.92
45.0355 0.28 20.79
45.0744 0.28 20.92
45.1116 0.41 20.92
45.1486 0.28 20.92
45.1827 0.28 20.92
45.2187 0.28 20.79
45.2538 0.41 20.92
45.2920 0.28 20.92
45.3240 0.28 20.92
45.3648 0.28 20.92
45.4007 0.28 21.05
45.4384 0.41 20.92
45.4759 0.28 20.92
45.5124 0.28 21.05
45.5473 0.28 20.92
45.5853 0.28 20.92
45.6232 0.28 20.92
45.6596 0.28 20.92
45.6945 0.28 20.92
45.7307 0.28 20.92
45.7666 0.28 20.92
45.8038 0.28 20.79
45.8361 0.28 20.92
45.8728 0.28 21.05
45.9093 0.28 20.92
45.9477 0.28 20.92
45.9832 0.28 20.92
46.0168 0.28 20.92
46.0535 0.28 20.92
46.0883 0.41 20.92
46.1230 0.28 20.92
46.1601 0.41 20.92
46.1952 0.41 20.92
46.2324 0.28 20.92
46.2699 0.28 20.92
46.3059 0.28 20.92
46.3459 0.28 20.92
46.3881 0.28 21.05
46.4255 0.28 20.92
46.4632 0.41 20.92
46.4989 0.28 20.92
46.5369 0.28 20.92
46.5751 0.28 20.92
46.6140 0.28 20.92
46.6504 0.15 20.92
46.6838 0.28 20.92
46.7203 0.28 20.92
46.7574 0.28 20.92
46.7907 0.28 21.05
46.8278 0.41 20.92
46.8601 0.28 20.79
46.8975 0.28 20.92
46.9322 0.41 20.79
46.9701 0.28 20.92
47.0075 0.28 20.92
47.0427 0.28 20.92
47.0819 0.28 20.92
47.1182 0.28 20.92
47.1526 0.28 20.92
47.1855 0.28 20.92
47.2238 0.28 20.92
47.2614 0.28 20.92
47.2986 0.28 21.05
47.3328 0.28 20.92
47.3759 0.28 20.92
47.4164 0.28 21.05
47.4538 0.28 20.92
47.4901 0.28 21.05
47.5283 0.28 20.92
47.5629 0.28 20.79
47.6015 0.28 20.92
47.6358 0.28 21.05
47.6722 0.28 20.92
47.7043 0.28 20.92
47.7395 0.41 20.92
47.7757 0.41 20.92
47.8134 0.28 20.79
47.8507 0.28 20.92
47.8876 0.28 20.92
47.9245 0.28 21.05
47.9602 0.28 20.92
47.9984 0.28 20.92
48.0351 0.41 20.92
48.0722 0.28 21.05
48.1079 0.41 20.92
48.1418 0.28 20.92
48.1746 0.28 20.92
48.2095 0.28 20.92
48.2436 0.28 20.92
48.2810 0.28 20.92
48.3173 0.28 20.92
48.3640 0.28 20.92
48.3956 0.28 20.92
48.4327 0.41 20.92
48.4688 0.28 20.92
48.5055 0.28 20.92
48.5433 0.28 20.92
48.5795 0.28 20.92
48.6169 0.28 20.79
48.6549 0.28 20.92
48.6942 0.28 20.92
48.7313 0.28 20.92
48.7690 0.28 20.92
48.8097 0.28 20.92
48.8493 0.41 20.92
48.8890 0.28 21.05
48.9269 0.28 20.92
48.9634 0.28 20.92
49.0020 0.28 21.05
49.0387 0.41 21.05
49.0720 0.28 20.92
49.1086 0.28 20.79
49.1445 0.41 20.92
49.1818 0.41 20.92
49.2196 0.28 20.92
49.2564 0.28 20.92
49.2967 0.28 20.92
49.3341 0.28 20.92
49.3755 0.28 20.92
49.4073 0.28 20.92
49.4401 0.28 20.92
49.4771 0.28 20.92
49.5147 0.28 20.92
49.5490 0.28 20.92
49.5870 0.28 20.92
49.6235 0.28 21.05
49.6616 0.41 21.05
49.6968 0.28 20.92
49.7307 0.28 20.92
49.7669 0.28 21.05
49.8052 0.28 20.92
49.8407 0.28 20.92
49.8791 0.41 20.92
49.9157 0.28 20.92
49.9481 0.28 21.05
49.9814 0.28 20.92
50.0213 0.28 20.92
50.0585 0.41 20.92
50.0956 0.28 20.92
50.1338 0.28 20.92
50.1687 0.28 20.92
50.2051 0.28 20.92
50.2389 0.28 20.92
50.2765 0.28 20.79
50.3109 0.28 20.92
50.3552 0.28 20.92
50.3932 0.28 20.92
50.4303 0.28 20.92
50.4685 0.41 20.92
50.5053 0.28 20.92
50.5410 0.28 20.92
50.5789 0.28 20.79
50.6153 0.28 20.92
50.6519 0.41 20.92
50.6891 0.28 20.92
50.7253 0.28 20.92
50.7589 0.41 20.92
50.7942 0.28 20.92
50.8328 0.28 20.92
50.8704 0.28 20.92
50.9074 0.28 20.92
50.9398 0.28 20.92
50.9763 0.28 20.92
51.0089 0.28 20.92
51.0419 0.28 20.92
51.0797 0.28 20.92
51.1149 0.28 20.92
51.1553 0.28 20.92
51.1915 0.28 20.92
51.2318 0.28 20.92
51.2662 0.28 20.92
51.3048 0.28 21.05
51.3406 0.41 20.92
51.3859 0.41 20.92
51.4223 0.41 20.79
51.4595 0.41 20.92
51.4995 0.28 20.92
51.5361 0.28 20.92
51.5707 0.28 20.79
51.6069 0.28 20.92
51.6442 0.41 20.79
51.6816 0.28 20.79
51.7167 0.28 20.92
51.7542 0.28 20.92
51.7914 0.28 20.92
51.8239 0.28 20.92
51.8601 0.28 20.92
51.8969 0.28 20.92
51.9334 0.28 20.79
51.9716 0.28 20.92
52.0090 0.28 20.92
52.0460 0.28 20.92
52.0808 0.28 20.92
52.1172 0.28 20.92
52.1553 0.28 21.05
52.1925 0.15 20.92
52.2291 0.41 20.92
52.2662 0.41 20.92
52.3025 0.28 20.92
52.3407 0.15 20.92
52.3836 0.28 20.92
52.4223 0.41 20.92
52.4584 0.41 20.92
52.4964 0.28 20.92
52.5327 0.28 20.92
52.5676 0.28 20.92
52.6057 0.28 20.92
52.6432 0.28 21.05
52.6803 0.28 20.92
52.7156 0.28 20.92
52.7524 0.41 20.92
52.7897 0.28 21.05
52.8276 0.28 20.92
52.8641 0.28 20.92
52.9015 0.28 21.05
52.9375 0.28 20.92
52.9706 0.28 20.92
53.0068 0.28 20.92
53.0409 0.28 20.92
53.0772 0.28 20.79
53.1130 0.28 20.92
53.1515 0.41 20.92
53.1874 0.28 21.05
53.2241 0.28 20.92
53.2629 0.28 20.92
53.2984 0.15 20.92
53.3352 0.28 20.92
53.3765 0.28 20.92
53.4138 0.28 21.05
53.4504 0.28 20.92
53.4868 0.28 20.92
53.5219 0.28 20.92
53.5595 0.28 20.92
53.5971 0.41 20.92
53.6343 0.28 20.92
53.6708 0.41 20.92
53.7113 0.28 20.92
53.7480 0.28 20.92
53.7861 0.28 20.92
53.8219 0.28 20.92
53.8594 0.28 20.92
53.8966 0.28 20.92
53.9329 0.28 20.92
53.9696 0.28 21.05
54.0069 0.28 20.92
54.0422 0.28 20.79
54.0799 0.28 20.92
54.1172 0.28 20.79
54.1523 0.41 20.92
54.1863 0.28 20.92
54.2232 0.28 20.92
54.2610 0.28 20.92
54.2982 0.28 20.79
54.3329 0.28 20.92
54.3739 0.28 20.92
54.4131 0.28 21.05
54.4494 0.28 20.92
54.4868 0.28 20.92
54.5186 0.28 20.92
54.5561 0.28 20.79
54.5920 0.28 20.92
54.6300 0.28 20.92
54.6669 0.28 20.79
54.7025 0.28 20.92
54.7388 0.28 20.79
54.7783 0.28 20.92
54.8134 0.41 20.92
54.8507 0.28 20.92
54.8884 0.28 20.92
54.9287 0.28 20.92
54.9639 0.15 20.92
55.0002 0.28 20.92
55.0354 0.28 20.79
55.0697 0.28 20.92
55.1063 0.28 20.92
55.1457 0.28 20.92
55.1807 0.28 21.05
55.2180 0.41 20.92
55.2555 0.28 20.92
55.2922 0.41 20.92
55.3300 0.28 20.92
55.3744 0.41 20.92
55.4129 0.28 20.92
55.4471 0.28 20.92
55.4853 0.28 20.92
55.5218 0.28 20.92
55.5592 0.41 20.92
55.5956 0.28 20.92
55.6327 0.28 20.92
55.6696 0.28 20.92
